0.000;0.319;47.941;0.319;;2019-05-02 10:22:49;;Analysis Wavelength;581.500 nm;
1.000;0.317;48.215;0.317;;Time;;slope (m);1.000;
2.000;0.319;48.026;0.319;;Absorbance/Transmittance CV;;y-intercept (b);0;
3.000;0.317;48.218;0.317;;;;Sample Rate;1 s;
4.000;0.317;48.191;0.317;;;;Bandwidth;1.000 nm;
5.000;0.319;47.974;0.319
6.000;0.322;47.694;0.322
7.000;0.320;47.894;0.320
8.000;0.317;48.147;0.317
9.000;0.317;48.243;0.317
10.000;0.316;48.265;0.316
11.000;0.317;48.144;0.317
12.000;0.317;48.224;0.317
13.000;0.318;48.029;0.318
14.000;0.317;48.245;0.317
15.000;0.315;48.424;0.315
16.000;0.315;48.429;0.315
17.000;0.315;48.374;0.315
18.000;0.313;48.671;0.313
19.000;0.315;48.415;0.315
20.000;0.314;48.482;0.314
21.000;0.319;47.993;0.319
22.000;0.319;48.018;0.319
23.000;0.320;47.842;0.320
24.000;0.320;47.856;0.320
25.000;0.323;47.505;0.323
26.000;0.324;47.450;0.324
27.000;0.324;47.433;0.324
28.000;0.326;47.203;0.326
29.000;0.321;47.699;0.321
30.000;0.322;47.614;0.322
31.000;0.317;48.215;0.317
32.000;0.318;48.108;0.318
33.000;0.315;48.432;0.315
34.000;0.316;48.330;0.316
35.000;0.315;48.380;0.315
36.000;0.318;48.089;0.318
37.000;0.319;47.977;0.319
38.000;0.309;49.038;0.309
39.000;0.308;49.189;0.308
40.000;0.309;49.143;0.309
41.000;0.306;49.466;0.306
42.000;0.308;49.178;0.308
43.000;0.304;49.609;0.304
44.000;0.305;49.552;0.305
45.000;0.305;49.595;0.305
46.000;0.306;49.417;0.306
47.000;0.304;49.658;0.304
48.000;0.306;49.376;0.306
49.000;0.304;49.686;0.304
50.000;0.304;49.658;0.304
51.000;0.303;49.738;0.303
52.000;0.304;49.716;0.304
53.000;0.303;49.782;0.303
54.000;0.302;49.872;0.302
55.000;0.301;50.029;0.301
56.000;0.301;49.996;0.301
57.000;0.301;50.034;0.301
58.000;0.301;50.056;0.301
59.000;0.301;49.965;0.301
60.000;0.301;50.034;0.301
61.000;0.300;50.086;0.300
62.000;0.301;49.987;0.301
63.000;0.301;49.987;0.301
64.000;0.300;50.078;0.300
65.000;0.299;50.278;0.299
66.000;0.299;50.199;0.299
67.000;0.297;50.448;0.297
68.000;0.298;50.306;0.298
69.000;0.299;50.218;0.299
70.000;0.301;50.040;0.301
71.000;0.298;50.292;0.298
72.000;0.296;50.531;0.296
73.000;0.297;50.489;0.297
74.000;0.295;50.662;0.295
75.000;0.296;50.586;0.296
76.000;0.295;50.687;0.295
77.000;0.295;50.662;0.295
78.000;0.298;50.394;0.298
79.000;0.293;50.890;0.293
80.000;0.295;50.701;0.295
81.000;0.297;50.470;0.297
82.000;0.298;50.407;0.298
83.000;0.298;50.372;0.298
84.000;0.297;50.492;0.297
85.000;0.298;50.306;0.298
86.000;0.298;50.352;0.298
87.000;0.297;50.443;0.297
88.000;0.296;50.577;0.296
89.000;0.295;50.736;0.295
90.000;0.296;50.542;0.296
91.000;0.295;50.665;0.295
92.000;0.300;50.111;0.300
93.000;0.302;49.935;0.302
94.000;0.297;50.415;0.297
95.000;0.301;50.053;0.301
96.000;0.294;50.816;0.294
97.000;0.295;50.714;0.295
98.000;0.294;50.775;0.294
99.000;0.294;50.852;0.294
100.000;0.297;50.484;0.297
101.000;0.296;50.588;0.296
102.000;0.296;50.578;0.296
103.000;0.293;50.915;0.293
104.000;0.295;50.712;0.295
105.000;0.292;51.088;0.292
106.000;0.289;51.367;0.289
107.000;0.291;51.167;0.291
108.000;0.289;51.370;0.289
109.000;0.288;51.477;0.288
110.000;0.286;51.716;0.286
111.000;0.285;51.842;0.285
112.000;0.280;52.437;0.280
113.000;0.284;51.998;0.284
114.000;0.282;52.190;0.282
115.000;0.281;52.355;0.281
116.000;0.283;52.119;0.283
117.000;0.283;52.072;0.283
118.000;0.282;52.229;0.282
119.000;0.281;52.418;0.281
120.000;0.283;52.169;0.283
121.000;0.282;52.182;0.282
122.000;0.281;52.415;0.281
123.000;0.281;52.410;0.281
124.000;0.280;52.427;0.280
125.000;0.280;52.462;0.280
126.000;0.281;52.311;0.281
127.000;0.279;52.638;0.279
128.000;0.278;52.690;0.278
129.000;0.279;52.643;0.279
130.000;0.278;52.703;0.278
131.000;0.279;52.627;0.279
132.000;0.278;52.783;0.278
133.000;0.277;52.816;0.277
134.000;0.278;52.715;0.278
135.000;0.276;53.000;0.276
136.000;0.277;52.849;0.277
137.000;0.278;52.778;0.278
138.000;0.275;53.109;0.275
139.000;0.277;52.797;0.277
140.000;0.276;52.939;0.276
141.000;0.275;53.112;0.275
142.000;0.276;52.942;0.276
143.000;0.276;52.951;0.276
144.000;0.274;53.211;0.274
145.000;0.275;53.104;0.275
146.000;0.274;53.192;0.274
147.000;0.274;53.167;0.274
148.000;0.275;53.104;0.275
149.000;0.272;53.439;0.272
150.000;0.274;53.266;0.274
151.000;0.272;53.428;0.272
152.000;0.273;53.310;0.273
153.000;0.273;53.310;0.273
154.000;0.273;53.365;0.273
155.000;0.271;53.551;0.271
156.000;0.271;53.573;0.271
157.000;0.271;53.581;0.271
158.000;0.271;53.625;0.271
159.000;0.271;53.603;0.271
160.000;0.271;53.573;0.271
161.000;0.271;53.595;0.271
162.000;0.271;53.548;0.271
163.000;0.271;53.576;0.271
164.000;0.270;53.647;0.270
165.000;0.272;53.507;0.272
166.000;0.271;53.540;0.271
167.000;0.271;53.603;0.271
168.000;0.269;53.790;0.269
169.000;0.270;53.680;0.270
170.000;0.267;54.064;0.267
171.000;0.270;53.760;0.270
172.000;0.269;53.782;0.269
173.000;0.269;53.883;0.269
174.000;0.267;54.026;0.267
175.000;0.267;54.094;0.267
176.000;0.267;54.078;0.267
177.000;0.269;53.886;0.269
178.000;0.269;53.790;0.269
179.000;0.268;53.993;0.268
180.000;0.266;54.149;0.266
181.000;0.265;54.319;0.265
182.000;0.267;54.064;0.267
183.000;0.266;54.174;0.266
184.000;0.266;54.207;0.266
185.000;0.267;54.111;0.267
186.000;0.266;54.251;0.266
187.000;0.265;54.308;0.265
188.000;0.266;54.223;0.266
189.000;0.265;54.377;0.265
190.000;0.264;54.429;0.264
191.000;0.265;54.372;0.265
192.000;0.262;54.714;0.262
193.000;0.263;54.586;0.263
194.000;0.264;54.405;0.264
195.000;0.264;54.509;0.264
196.000;0.264;54.476;0.264
197.000;0.261;54.876;0.261
198.000;0.261;54.838;0.261
199.000;0.263;54.602;0.263
200.000;0.260;54.895;0.260
201.000;0.260;54.972;0.260
202.000;0.260;54.931;0.260
203.000;0.261;54.849;0.261
204.000;0.262;54.643;0.262
205.000;0.261;54.819;0.261
206.000;0.261;54.832;0.261
207.000;0.260;54.969;0.260
208.000;0.261;54.797;0.261
209.000;0.260;54.906;0.260
210.000;0.260;54.934;0.260
211.000;0.259;55.104;0.259
212.000;0.259;55.126;0.259
213.000;0.259;55.041;0.259
214.000;0.257;55.389;0.257
215.000;0.259;55.132;0.259
216.000;0.257;55.387;0.257
217.000;0.257;55.359;0.257
218.000;0.258;55.244;0.258
219.000;0.256;55.400;0.256
220.000;0.257;55.310;0.257
221.000;0.258;55.175;0.258
222.000;0.257;55.337;0.257
223.000;0.256;55.439;0.256
224.000;0.256;55.450;0.256
225.000;0.257;55.389;0.257
226.000;0.255;55.609;0.255
227.000;0.255;55.584;0.255
228.000;0.256;55.480;0.256
229.000;0.254;55.738;0.254
230.000;0.256;55.436;0.256
231.000;0.255;55.614;0.255
232.000;0.253;55.828;0.253
233.000;0.255;55.576;0.255
234.000;0.254;55.661;0.254
235.000;0.254;55.768;0.254
236.000;0.253;55.842;0.253
237.000;0.253;55.809;0.253
238.000;0.251;56.064;0.251
239.000;0.252;56.007;0.252
240.000;0.253;55.902;0.253
241.000;0.252;56.020;0.252
242.000;0.253;55.878;0.253
243.000;0.253;55.897;0.253
244.000;0.252;55.921;0.252
245.000;0.252;55.995;0.252
246.000;0.252;56.004;0.252
247.000;0.253;55.798;0.253
248.000;0.252;55.976;0.252
249.000;0.250;56.207;0.250
250.000;0.248;56.555;0.248
251.000;0.249;56.377;0.249
252.000;0.250;56.262;0.250
253.000;0.248;56.470;0.248
254.000;0.248;56.519;0.248
255.000;0.246;56.753;0.246
256.000;0.249;56.415;0.249
257.000;0.248;56.519;0.248
258.000;0.247;56.585;0.247
259.000;0.248;56.558;0.248
260.000;0.247;56.577;0.247
261.000;0.247;56.566;0.247
262.000;0.246;56.720;0.246
263.000;0.245;56.890;0.245
264.000;0.245;56.857;0.245
265.000;0.244;56.997;0.244
266.000;0.245;56.843;0.245
267.000;0.247;56.684;0.247
268.000;0.247;56.657;0.247
269.000;0.245;56.868;0.245
270.000;0.245;56.846;0.245
271.000;0.244;57.003;0.244
272.000;0.245;56.928;0.245
273.000;0.244;57.052;0.244
274.000;0.243;57.104;0.243
275.000;0.245;56.854;0.245
276.000;0.246;56.805;0.246
277.000;0.242;57.235;0.242
278.000;0.244;57.033;0.244
279.000;0.244;56.969;0.244
280.000;0.242;57.255;0.242
281.000;0.242;57.326;0.242
282.000;0.242;57.337;0.242
283.000;0.240;57.521;0.240
284.000;0.240;57.502;0.240
285.000;0.241;57.381;0.241
286.000;0.242;57.274;0.242
287.000;0.238;57.757;0.238
288.000;0.242;57.269;0.242
289.000;0.241;57.463;0.241
290.000;0.239;57.628;0.239
291.000;0.240;57.551;0.240
292.000;0.240;57.480;0.240
293.000;0.240;57.545;0.240
294.000;0.238;57.779;0.238
295.000;0.239;57.625;0.239
296.000;0.239;57.666;0.239
297.000;0.238;57.842;0.238
298.000;0.236;58.108;0.236
299.000;0.239;57.641;0.239
300.000;0.236;58.017;0.236
301.000;0.238;57.842;0.238
302.000;0.239;57.642;0.239
303.000;0.238;57.751;0.238
304.000;0.236;58.092;0.236
305.000;0.237;57.954;0.237
306.000;0.236;58.080;0.236
307.000;0.236;58.042;0.236
308.000;0.235;58.168;0.235
309.000;0.235;58.207;0.235
310.000;0.235;58.185;0.235
311.000;0.234;58.393;0.234
312.000;0.234;58.379;0.234
313.000;0.235;58.152;0.235
314.000;0.235;58.245;0.235
315.000;0.235;58.196;0.235
316.000;0.233;58.539;0.233
317.000;0.234;58.291;0.234
318.000;0.234;58.344;0.234
319.000;0.231;58.772;0.231
320.000;0.233;58.426;0.233
321.000;0.233;58.467;0.233
322.000;0.233;58.481;0.233
323.000;0.231;58.796;0.231
324.000;0.233;58.536;0.233
325.000;0.233;58.456;0.233
326.000;0.232;58.618;0.232
327.000;0.231;58.766;0.231
328.000;0.232;58.679;0.232
329.000;0.231;58.777;0.231
330.000;0.232;58.632;0.232
331.000;0.230;58.827;0.230
332.000;0.231;58.805;0.231
333.000;0.228;59.175;0.228
334.000;0.229;59.049;0.229
335.000;0.228;59.115;0.228
336.000;0.228;59.181;0.228
337.000;0.230;58.857;0.230
338.000;0.230;58.821;0.230
339.000;0.229;58.958;0.229
340.000;0.227;59.260;0.227
341.000;0.228;59.104;0.228
342.000;0.225;59.573;0.225
343.000;0.227;59.329;0.227
344.000;0.227;59.255;0.227
345.000;0.227;59.318;0.227
346.000;0.228;59.161;0.228
347.000;0.225;59.581;0.225
348.000;0.226;59.373;0.226
349.000;0.226;59.411;0.226
350.000;0.225;59.570;0.225
351.000;0.225;59.625;0.225
352.000;0.225;59.526;0.225
353.000;0.225;59.589;0.225
354.000;0.223;59.781;0.223
355.000;0.224;59.666;0.224
356.000;0.224;59.682;0.224
357.000;0.223;59.822;0.223
358.000;0.223;59.845;0.223
359.000;0.223;59.883;0.223
360.000;0.222;59.987;0.222
361.000;0.222;59.992;0.222
362.000;0.221;60.124;0.221
363.000;0.221;60.116;0.221
364.000;0.222;60.028;0.222
365.000;0.222;59.995;0.222
366.000;0.220;60.311;0.220
367.000;0.219;60.374;0.219
368.000;0.220;60.270;0.220
369.000;0.218;60.473;0.218
370.000;0.220;60.248;0.220
371.000;0.221;60.168;0.221
372.000;0.218;60.530;0.218
373.000;0.220;60.237;0.220
374.000;0.218;60.465;0.218
375.000;0.218;60.574;0.218
376.000;0.217;60.665;0.217
377.000;0.218;60.528;0.218
378.000;0.218;60.599;0.218
379.000;0.216;60.824;0.216
380.000;0.215;60.895;0.215
381.000;0.216;60.846;0.216
382.000;0.217;60.615;0.217
383.000;0.214;61.063;0.214
384.000;0.217;60.662;0.217
385.000;0.215;60.884;0.215
386.000;0.217;60.651;0.217
387.000;0.215;60.967;0.215
388.000;0.216;60.818;0.216
389.000;0.215;60.903;0.215
390.000;0.214;61.054;0.214
391.000;0.213;61.192;0.213
392.000;0.213;61.230;0.213
393.000;0.216;60.851;0.216
394.000;0.215;60.989;0.215
395.000;0.214;61.161;0.214
396.000;0.213;61.172;0.213
397.000;0.216;60.881;0.216
398.000;0.213;61.167;0.213
399.000;0.215;60.958;0.215
400.000;0.212;61.345;0.212
401.000;0.215;61.019;0.215
402.000;0.211;61.548;0.211
403.000;0.213;61.241;0.213
404.000;0.212;61.378;0.212
405.000;0.212;61.386;0.212
406.000;0.210;61.595;0.210
407.000;0.212;61.373;0.212
408.000;0.210;61.677;0.210
409.000;0.208;61.941;0.208
410.000;0.209;61.850;0.209
411.000;0.210;61.633;0.210
412.000;0.209;61.820;0.209
413.000;0.208;61.973;0.208
414.000;0.209;61.855;0.209
415.000;0.208;61.954;0.208
416.000;0.208;61.875;0.208
417.000;0.209;61.801;0.209
418.000;0.209;61.831;0.209
419.000;0.207;62.031;0.207
420.000;0.207;62.110;0.207
421.000;0.206;62.179;0.206
422.000;0.205;62.322;0.205
423.000;0.204;62.516;0.204
424.000;0.205;62.445;0.205
425.000;0.205;62.404;0.205
426.000;0.205;62.311;0.205
427.000;0.206;62.171;0.206
428.000;0.204;62.505;0.204
429.000;0.203;62.662;0.203
430.000;0.203;62.684;0.203
431.000;0.205;62.330;0.205
432.000;0.204;62.464;0.204
433.000;0.203;62.690;0.203
434.000;0.202;62.851;0.202
435.000;0.201;62.988;0.201
436.000;0.202;62.859;0.202
437.000;0.201;62.901;0.201
438.000;0.202;62.736;0.202
439.000;0.201;63.008;0.201
440.000;0.201;62.892;0.201
441.000;0.200;63.092;0.200
442.000;0.201;62.917;0.201
443.000;0.201;62.964;0.201
444.000;0.200;63.051;0.200
445.000;0.201;62.914;0.201
446.000;0.200;63.090;0.200
447.000;0.199;63.197;0.199
448.000;0.198;63.331;0.198
449.000;0.199;63.249;0.199
450.000;0.199;63.208;0.199
451.000;0.198;63.436;0.198
452.000;0.198;63.317;0.198
453.000;0.198;63.350;0.198
454.000;0.197;63.466;0.197
455.000;0.195;63.768;0.195
456.000;0.199;63.282;0.199
457.000;0.198;63.320;0.198
458.000;0.196;63.664;0.196
459.000;0.198;63.384;0.198
460.000;0.198;63.381;0.198
461.000;0.196;63.713;0.196
462.000;0.195;63.759;0.195
463.000;0.197;63.485;0.197
464.000;0.195;63.781;0.195
465.000;0.195;63.787;0.195
466.000;0.196;63.680;0.196
467.000;0.193;64.050;0.193
468.000;0.194;64.009;0.194
469.000;0.195;63.795;0.195
470.000;0.194;63.907;0.194
471.000;0.193;64.152;0.193
472.000;0.194;63.995;0.194
473.000;0.191;64.453;0.191
474.000;0.192;64.267;0.192
475.000;0.192;64.204;0.192
476.000;0.193;64.154;0.193
477.000;0.194;63.992;0.194
478.000;0.193;64.105;0.193
479.000;0.193;64.154;0.193
480.000;0.192;64.253;0.192
481.000;0.192;64.259;0.192
482.000;0.191;64.382;0.191
483.000;0.191;64.393;0.191
484.000;0.192;64.223;0.192
485.000;0.191;64.486;0.191
486.000;0.190;64.604;0.190
487.000;0.189;64.741;0.189
488.000;0.190;64.613;0.190
489.000;0.188;64.794;0.188
490.000;0.188;64.827;0.188
491.000;0.189;64.750;0.189
492.000;0.188;64.887;0.188
493.000;0.188;64.813;0.188
494.000;0.188;64.928;0.188
495.000;0.187;64.969;0.187
496.000;0.150;70.777;0.150
497.000;0.152;70.546;0.152
498.000;0.151;70.610;0.151
499.000;0.153;70.286;0.153
500.000;0.153;70.228;0.153
501.000;0.151;70.587;0.151
502.000;0.150;70.744;0.150
503.000;0.151;70.623;0.151
504.000;0.151;70.566;0.151
505.000;0.150;70.744;0.150
506.000;0.151;70.708;0.151
507.000;0.151;70.692;0.151
508.000;0.150;70.761;0.150
509.000;0.153;70.379;0.153
510.000;0.148;71.054;0.148
511.000;0.151;70.706;0.151
512.000;0.151;70.692;0.151
513.000;0.151;70.596;0.151
514.000;0.151;70.708;0.151
515.000;0.151;70.686;0.151
516.000;0.151;70.566;0.151
517.000;0.152;70.478;0.152
518.000;0.151;70.588;0.151
519.000;0.150;70.722;0.150
520.000;0.150;70.835;0.150
521.000;0.150;70.755;0.150
522.000;0.150;70.821;0.150
523.000;0.151;70.618;0.151
524.000;0.150;70.782;0.150
525.000;0.150;70.758;0.150
526.000;0.153;70.231;0.153
527.000;0.149;70.966;0.149
528.000;0.149;70.903;0.149
529.000;0.148;71.147;0.148
530.000;0.150;70.818;0.150
531.000;0.150;70.716;0.150
532.000;0.151;70.667;0.151
533.000;0.151;70.634;0.151
534.000;0.150;70.722;0.150
535.000;0.152;70.491;0.152
536.000;0.150;70.738;0.150
537.000;0.150;70.845;0.150
538.000;0.150;70.799;0.150
539.000;0.151;70.684;0.151
540.000;0.151;70.599;0.151
541.000;0.150;70.875;0.150
542.000;0.152;70.401;0.152
543.000;0.151;70.569;0.151
544.000;0.150;70.763;0.150
545.000;0.149;70.884;0.149
546.000;0.150;70.826;0.150
547.000;0.149;71.018;0.149
548.000;0.151;70.593;0.151
549.000;0.150;70.755;0.150
550.000;0.150;70.870;0.150
551.000;0.150;70.859;0.150
552.000;0.150;70.870;0.150
553.000;0.150;70.829;0.150
554.000;0.149;70.919;0.149
555.000;0.150;70.834;0.150
556.000;0.148;71.040;0.148
557.000;0.149;70.991;0.149
558.000;0.149;70.881;0.149
559.000;0.149;70.881;0.149
560.000;0.150;70.774;0.150
561.000;0.151;70.626;0.151
562.000;0.150;70.727;0.150
563.000;0.149;70.892;0.149
564.000;0.149;70.917;0.149
565.000;0.149;71.005;0.149
566.000;0.149;70.900;0.149
567.000;0.150;70.846;0.150
568.000;0.150;70.793;0.150
569.000;0.150;70.873;0.150
570.000;0.148;71.046;0.148
571.000;0.149;70.881;0.149
572.000;0.151;70.689;0.151
573.000;0.148;71.155;0.148
574.000;0.151;70.694;0.151
575.000;0.150;70.785;0.150
576.000;0.149;70.925;0.149
577.000;0.150;70.736;0.150
578.000;0.150;70.752;0.150
579.000;0.150;70.856;0.150
580.000;0.149;71.037;0.149
581.000;0.148;71.186;0.148
582.000;0.149;70.922;0.149
583.000;0.148;71.142;0.148
584.000;0.149;70.974;0.149
585.000;0.152;70.428;0.152
586.000;0.151;70.582;0.151
587.000;0.148;71.076;0.148
588.000;0.149;70.931;0.149
589.000;0.148;71.079;0.148
590.000;0.149;70.947;0.149
591.000;0.149;71.037;0.149
592.000;0.149;70.985;0.149
593.000;0.150;70.793;0.150
594.000;0.148;71.120;0.148
595.000;0.150;70.821;0.150
596.000;0.148;71.065;0.148
597.000;0.150;70.799;0.150
598.000;0.149;70.947;0.149
599.000;0.150;70.845;0.150
600.000;0.149;70.898;0.149
601.000;0.151;70.629;0.151
602.000;0.148;71.059;0.148
603.000;0.149;70.914;0.149
604.000;0.149;71.018;0.149
605.000;0.146;71.408;0.146
606.000;0.149;71.018;0.149
607.000;0.149;70.997;0.149
608.000;0.150;70.807;0.150
609.000;0.149;70.878;0.149
610.000;0.149;70.942;0.149
611.000;0.149;70.953;0.149
612.000;0.149;70.988;0.149
613.000;0.150;70.722;0.150
614.000;0.150;70.747;0.150
615.000;0.148;71.191;0.148
616.000;0.150;70.815;0.150
617.000;0.150;70.862;0.150
618.000;0.149;70.919;0.149
619.000;0.149;70.974;0.149
620.000;0.150;70.849;0.150
621.000;0.149;70.887;0.149
622.000;0.149;70.966;0.149
623.000;0.150;70.779;0.150
624.000;0.147;71.219;0.147
625.000;0.150;70.771;0.150
626.000;0.149;70.878;0.149
627.000;0.148;71.180;0.148
628.000;0.149;70.952;0.149
629.000;0.148;71.112;0.148
630.000;0.150;70.837;0.150
631.000;0.149;70.966;0.149
632.000;0.149;70.933;0.149
633.000;0.148;71.040;0.148
634.000;0.149;71.002;0.149
635.000;0.148;71.158;0.148
636.000;0.149;71.029;0.149
637.000;0.149;70.936;0.149
638.000;0.150;70.848;0.150
639.000;0.149;71.021;0.149
640.000;0.148;71.112;0.148
641.000;0.149;70.974;0.149
642.000;0.149;71.010;0.149
643.000;0.150;70.730;0.150
644.000;0.149;71.018;0.149
645.000;0.149;71.024;0.149
646.000;0.148;71.172;0.148
647.000;0.148;71.133;0.148
648.000;0.149;71.018;0.149
649.000;0.148;71.136;0.148
650.000;0.149;70.985;0.149
651.000;0.149;70.950;0.149
652.000;0.149;70.983;0.149
653.000;0.149;70.906;0.149
654.000;0.147;71.295;0.147
655.000;0.149;70.909;0.149
656.000;0.149;70.892;0.149
657.000;0.149;70.952;0.149
658.000;0.148;71.133;0.148
659.000;0.149;70.906;0.149
660.000;0.148;71.144;0.148
661.000;0.148;71.199;0.148
662.000;0.148;71.166;0.148
663.000;0.148;71.081;0.148
664.000;0.149;70.980;0.149
665.000;0.149;70.999;0.149
666.000;0.150;70.840;0.150
667.000;0.148;71.155;0.148
668.000;0.148;71.073;0.148
669.000;0.147;71.284;0.147
670.000;0.148;71.180;0.148
671.000;0.149;70.969;0.149
672.000;0.150;70.851;0.150
673.000;0.149;71.021;0.149
674.000;0.149;70.977;0.149
675.000;0.148;71.128;0.148
676.000;0.148;71.103;0.148
677.000;0.149;71.024;0.149
678.000;0.148;71.073;0.148
679.000;0.148;71.167;0.148
680.000;0.148;71.123;0.148
681.000;0.148;71.114;0.148
682.000;0.148;71.174;0.148
683.000;0.148;71.051;0.148
684.000;0.149;70.881;0.149
685.000;0.148;71.133;0.148
686.000;0.148;71.095;0.148
687.000;0.148;71.051;0.148
688.000;0.148;71.065;0.148
689.000;0.148;71.194;0.148
690.000;0.148;71.109;0.148
691.000;0.146;71.377;0.146
692.000;0.148;71.161;0.148
693.000;0.146;71.457;0.146
694.000;0.148;71.117;0.148
695.000;0.146;71.457;0.146
696.000;0.146;71.504;0.146
697.000;0.147;71.268;0.147
698.000;0.145;71.655;0.145
699.000;0.144;71.814;0.144
700.000;0.145;71.608;0.145
701.000;0.146;71.512;0.146
702.000;0.144;71.792;0.144
703.000;0.145;71.619;0.145
704.000;0.145;71.682;0.145
705.000;0.145;71.693;0.145
706.000;0.144;71.786;0.144
707.000;0.143;71.869;0.143
708.000;0.143;71.896;0.143
709.000;0.143;71.932;0.143
710.000;0.143;72.011;0.143
711.000;0.146;71.526;0.146
712.000;0.143;72.012;0.143
713.000;0.145;71.586;0.145
714.000;0.144;71.844;0.144
715.000;0.143;71.951;0.143
716.000;0.142;72.028;0.142
717.000;0.142;72.080;0.142
718.000;0.141;72.280;0.141
719.000;0.142;72.146;0.142
720.000;0.143;71.882;0.143
721.000;0.142;72.105;0.142
722.000;0.142;72.140;0.142
723.000;0.139;72.535;0.139
724.000;0.140;72.437;0.140
725.000;0.141;72.239;0.141
726.000;0.139;72.568;0.139
727.000;0.141;72.324;0.141
728.000;0.139;72.574;0.139
729.000;0.140;72.456;0.140
730.000;0.142;72.190;0.142
731.000;0.139;72.587;0.139
732.000;0.141;72.324;0.141
733.000;0.139;72.661;0.139
734.000;0.141;72.354;0.141
735.000;0.141;72.280;0.141
736.000;0.138;72.807;0.138
737.000;0.139;72.656;0.139
738.000;0.138;72.725;0.138
739.000;0.138;72.708;0.138
740.000;0.139;72.607;0.139
741.000;0.138;72.821;0.138
742.000;0.139;72.596;0.139
743.000;0.138;72.840;0.138
744.000;0.139;72.656;0.139
745.000;0.136;73.073;0.136
746.000;0.139;72.659;0.139
747.000;0.140;72.497;0.140
748.000;0.139;72.566;0.139
749.000;0.138;72.845;0.138
750.000;0.138;72.708;0.138
751.000;0.136;73.153;0.136
752.000;0.136;73.120;0.136
753.000;0.136;73.122;0.136
754.000;0.137;72.958;0.137
755.000;0.137;72.985;0.137
756.000;0.136;73.035;0.136
757.000;0.137;72.864;0.137
758.000;0.137;72.925;0.137
759.000;0.136;73.068;0.136
760.000;0.135;73.265;0.135
761.000;0.137;73.002;0.137
762.000;0.135;73.298;0.135
763.000;0.135;73.224;0.135
764.000;0.133;73.687;0.133
765.000;0.135;73.295;0.135
766.000;0.135;73.254;0.135
767.000;0.136;73.180;0.136
768.000;0.133;73.600;0.133
769.000;0.133;73.674;0.133
770.000;0.134;73.410;0.134
771.000;0.133;73.608;0.133
772.000;0.133;73.679;0.133
773.000;0.133;73.578;0.133
774.000;0.131;73.877;0.131
775.000;0.132;73.756;0.132
776.000;0.132;73.808;0.132
777.000;0.131;73.940;0.131
778.000;0.132;73.852;0.132
779.000;0.132;73.767;0.132
780.000;0.131;73.940;0.131
781.000;0.132;73.825;0.132
782.000;0.131;73.981;0.131
783.000;0.133;73.567;0.133
784.000;0.133;73.668;0.133
785.000;0.132;73.844;0.132
786.000;0.130;74.082;0.130
787.000;0.129;74.264;0.129
788.000;0.129;74.349;0.129
789.000;0.128;74.396;0.128
790.000;0.131;74.022;0.131
791.000;0.130;74.168;0.130
792.000;0.128;74.404;0.128
793.000;0.130;74.151;0.130
794.000;0.131;74.009;0.131
795.000;0.129;74.280;0.129
796.000;0.129;74.266;0.129
797.000;0.127;74.563;0.127
798.000;0.128;74.478;0.128
799.000;0.129;74.351;0.129
800.000;0.127;74.683;0.127
801.000;0.128;74.516;0.128
802.000;0.129;74.365;0.129
803.000;0.128;74.406;0.128
804.000;0.128;74.448;0.128
805.000;0.127;74.618;0.127
806.000;0.127;74.618;0.127
807.000;0.128;74.434;0.128
808.000;0.128;74.472;0.128
809.000;0.128;74.393;0.128
810.000;0.128;74.486;0.128
811.000;0.125;74.919;0.125
812.000;0.125;74.996;0.125
813.000;0.125;74.955;0.125
814.000;0.126;74.793;0.126
815.000;0.125;74.996;0.125
816.000;0.125;74.974;0.125
817.000;0.125;75.037;0.125
818.000;0.126;74.763;0.126
819.000;0.124;75.119;0.124
820.000;0.126;74.799;0.126
821.000;0.126;74.818;0.126
822.000;0.125;75.029;0.125
823.000;0.125;74.919;0.125
824.000;0.126;74.862;0.126
825.000;0.125;74.950;0.125
826.000;0.125;75.010;0.125
827.000;0.123;75.400;0.123
828.000;0.124;75.188;0.124
829.000;0.125;75.013;0.125
830.000;0.125;75.065;0.125
831.000;0.122;75.558;0.122
832.000;0.124;75.238;0.124
833.000;0.123;75.312;0.123
834.000;0.122;75.430;0.122
835.000;0.123;75.265;0.123
836.000;0.122;75.504;0.122
837.000;0.122;75.452;0.122
838.000;0.122;75.504;0.122
839.000;0.122;75.556;0.122
840.000;0.120;75.778;0.120
841.000;0.121;75.668;0.121
842.000;0.121;75.728;0.121
843.000;0.120;75.907;0.120
844.000;0.120;75.901;0.120
845.000;0.121;75.729;0.121
846.000;0.121;75.767;0.121
847.000;0.120;75.860;0.120
848.000;0.120;75.814;0.120
849.000;0.119;76.041;0.119
850.000;0.119;76.003;0.119
851.000;0.118;76.140;0.118
852.000;0.119;76.039;0.119
853.000;0.118;76.269;0.118
854.000;0.118;76.159;0.118
855.000;0.117;76.362;0.117
856.000;0.119;76.093;0.119
857.000;0.118;76.140;0.118
858.000;0.118;76.250;0.118
859.000;0.118;76.253;0.118
860.000;0.117;76.420;0.117
861.000;0.118;76.220;0.118
862.000;0.118;76.285;0.118
863.000;0.119;76.075;0.119
864.000;0.118;76.195;0.118
865.000;0.118;76.234;0.118
866.000;0.116;76.477;0.116
867.000;0.115;76.733;0.115
868.000;0.116;76.541;0.116
869.000;0.117;76.341;0.117
870.000;0.117;76.365;0.117
871.000;0.117;76.412;0.117
872.000;0.116;76.623;0.116
873.000;0.115;76.681;0.115
874.000;0.115;76.790;0.115
875.000;0.115;76.788;0.115
876.000;0.114;76.955;0.114
877.000;0.115;76.815;0.115
878.000;0.114;76.873;0.114
879.000;0.115;76.708;0.115
880.000;0.114;76.834;0.114
881.000;0.114;76.883;0.114
882.000;0.116;76.626;0.116
883.000;0.112;77.238;0.112
884.000;0.113;77.016;0.113
885.000;0.114;76.900;0.114
886.000;0.113;77.029;0.113
887.000;0.112;77.355;0.112
888.000;0.113;77.059;0.113
889.000;0.114;76.979;0.114
890.000;0.113;77.054;0.113
891.000;0.113;77.051;0.113
892.000;0.111;77.457;0.111
893.000;0.112;77.265;0.112
894.000;0.112;77.224;0.112
895.000;0.112;77.235;0.112
896.000;0.114;76.982;0.114
897.000;0.111;77.484;0.111
898.000;0.112;77.336;0.112
899.000;0.112;77.199;0.112
900.000;0.112;77.323;0.112
901.000;0.112;77.353;0.112
902.000;0.111;77.377;0.111
903.000;0.111;77.372;0.111
904.000;0.110;77.539;0.110
905.000;0.112;77.284;0.112
906.000;0.113;77.172;0.113
907.000;0.111;77.454;0.111
908.000;0.111;77.372;0.111
909.000;0.112;77.213;0.112
910.000;0.113;77.076;0.113
911.000;0.111;77.413;0.111
912.000;0.111;77.441;0.111
913.000;0.111;77.515;0.111
914.000;0.110;77.589;0.110
915.000;0.109;77.767;0.109
916.000;0.109;77.836;0.109
917.000;0.111;77.479;0.111
918.000;0.109;77.731;0.109
919.000;0.109;77.825;0.109
920.000;0.107;78.096;0.107
921.000;0.109;77.800;0.109
922.000;0.106;78.255;0.106
923.000;0.107;78.162;0.107
924.000;0.107;78.156;0.107
925.000;0.107;78.080;0.107
926.000;0.108;77.964;0.108
927.000;0.108;78.019;0.108
928.000;0.109;77.882;0.109
929.000;0.107;78.077;0.107
930.000;0.106;78.343;0.106
931.000;0.108;77.932;0.108
932.000;0.107;78.074;0.107
933.000;0.108;77.967;0.108
934.000;0.107;78.162;0.107
935.000;0.106;78.409;0.106
936.000;0.106;78.255;0.106
937.000;0.108;78.033;0.108
938.000;0.106;78.362;0.106
939.000;0.107;78.241;0.107
940.000;0.107;78.250;0.107
941.000;0.105;78.510;0.105
942.000;0.107;78.085;0.107
943.000;0.106;78.283;0.106
944.000;0.105;78.612;0.105
945.000;0.104;78.779;0.104
946.000;0.105;78.488;0.105
947.000;0.106;78.343;0.106
948.000;0.104;78.683;0.104
949.000;0.106;78.414;0.106
950.000;0.105;78.527;0.105
951.000;0.105;78.604;0.105
952.000;0.103;78.832;0.103
953.000;0.104;78.658;0.104
954.000;0.103;78.906;0.103
955.000;0.103;78.886;0.103
956.000;0.104;78.708;0.104
957.000;0.102;79.059;0.102
958.000;0.102;79.111;0.102
959.000;0.104;78.752;0.104
960.000;0.103;78.894;0.103
961.000;0.104;78.754;0.104
962.000;0.103;78.804;0.103
963.000;0.102;79.010;0.102
964.000;0.103;78.796;0.103
965.000;0.102;79.092;0.102
966.000;0.100;79.375;0.100
967.000;0.102;79.152;0.102
968.000;0.103;78.914;0.103
969.000;0.100;79.495;0.100
970.000;0.102;79.073;0.102
971.000;0.100;79.402;0.100
972.000;0.099;79.632;0.099
973.000;0.102;79.059;0.102
974.000;0.102;79.103;0.102
975.000;0.101;79.248;0.101
976.000;0.101;79.243;0.101
977.000;0.098;79.737;0.098
978.000;0.098;79.767;0.098
979.000;0.101;79.336;0.101
980.000;0.100;79.413;0.100
981.000;0.101;79.309;0.101
982.000;0.100;79.476;0.100
983.000;0.102;79.040;0.102
984.000;0.099;79.682;0.099
985.000;0.099;79.676;0.099
986.000;0.097;80.066;0.097
987.000;0.098;79.742;0.098
988.000;0.098;79.805;0.098
989.000;0.099;79.575;0.099
990.000;0.098;79.740;0.098
991.000;0.098;79.723;0.098
992.000;0.097;79.937;0.097
993.000;0.097;79.923;0.097
994.000;0.098;79.745;0.098
995.000;0.098;79.734;0.098
996.000;0.098;79.808;0.098
997.000;0.098;79.822;0.098
998.000;0.097;79.942;0.097
999.000;0.098;79.874;0.098
1000.000;0.098;79.835;0.098
1001.000;0.096;80.107;0.096
1002.000;0.096;80.157;0.096
1003.000;0.096;80.173;0.096
1004.000;0.095;80.412;0.095
1005.000;0.096;80.211;0.096
1006.000;0.096;80.121;0.096
1007.000;0.098;79.865;0.098
1008.000;0.096;80.247;0.096
1009.000;0.097;79.992;0.097
1010.000;0.097;79.962;0.097
1011.000;0.096;80.162;0.096
1012.000;0.095;80.288;0.095
1013.000;0.095;80.329;0.095
1014.000;0.096;80.137;0.096
1015.000;0.095;80.406;0.095
1016.000;0.095;80.335;0.095
1017.000;0.095;80.346;0.095
1018.000;0.096;80.214;0.096
1019.000;0.093;80.681;0.093
1020.000;0.095;80.351;0.095
1021.000;0.095;80.349;0.095
1022.000;0.096;80.219;0.096
1023.000;0.093;80.664;0.093
1024.000;0.092;80.829;0.092
1025.000;0.096;80.252;0.096
1026.000;0.095;80.365;0.095
1027.000;0.095;80.431;0.095
1028.000;0.094;80.579;0.094
1029.000;0.093;80.795;0.093
1030.000;0.093;80.749;0.093
1031.000;0.093;80.766;0.093
1032.000;0.095;80.376;0.095
1033.000;0.092;80.889;0.092
1034.000;0.093;80.724;0.093
1035.000;0.092;80.903;0.092
1036.000;0.092;80.889;0.092
1037.000;0.092;80.895;0.092
1038.000;0.093;80.708;0.093
1039.000;0.092;80.859;0.092
1040.000;0.091;81.147;0.091
1041.000;0.091;81.070;0.091
1042.000;0.090;81.339;0.090
1043.000;0.091;81.026;0.091
1044.000;0.091;81.081;0.091
1045.000;0.090;81.224;0.090
1046.000;0.090;81.202;0.090
1047.000;0.092;80.900;0.092
1048.000;0.091;81.127;0.091
1049.000;0.090;81.355;0.090
1050.000;0.091;81.064;0.091
1051.000;0.091;81.155;0.091
1052.000;0.088;81.673;0.088
1053.000;0.091;81.175;0.091
1054.000;0.089;81.484;0.089
1055.000;0.090;81.317;0.090
1056.000;0.088;81.630;0.088
1057.000;0.090;81.339;0.090
1058.000;0.087;81.753;0.087
1059.000;0.089;81.553;0.089
1060.000;0.088;81.674;0.088
1061.000;0.090;81.341;0.090
1062.000;0.089;81.405;0.089
1063.000;0.089;81.531;0.089
1064.000;0.089;81.380;0.089
1065.000;0.086;82.008;0.086
1066.000;0.090;81.287;0.090
1067.000;0.089;81.440;0.089
1068.000;0.089;81.517;0.089
1069.000;0.088;81.709;0.088
1070.000;0.087;81.764;0.087
1071.000;0.088;81.663;0.088
1072.000;0.088;81.616;0.088
1073.000;0.089;81.402;0.089
1074.000;0.087;81.792;0.087
1075.000;0.086;82.005;0.086
1076.000;0.087;81.879;0.087
1077.000;0.088;81.696;0.088
1078.000;0.088;81.578;0.088
1079.000;0.089;81.561;0.089
1080.000;0.087;81.871;0.087
1081.000;0.087;81.770;0.087
1082.000;0.088;81.723;0.088
1083.000;0.087;81.910;0.087
1084.000;0.087;81.830;0.087
1085.000;0.085;82.145;0.085
1086.000;0.086;82.093;0.086
1087.000;0.085;82.170;0.085
1088.000;0.084;82.434;0.084
1089.000;0.086;82.060;0.086
1090.000;0.086;82.077;0.086
1091.000;0.086;82.057;0.086
1092.000;0.085;82.140;0.085
1093.000;0.085;82.167;0.085
1094.000;0.086;82.077;0.086
1095.000;0.086;82.041;0.086
1096.000;0.084;82.359;0.084
1097.000;0.083;82.516;0.083
1098.000;0.084;82.332;0.084
1099.000;0.085;82.143;0.085
1100.000;0.084;82.351;0.084
1101.000;0.083;82.560;0.083
1102.000;0.085;82.288;0.085
1103.000;0.085;82.176;0.085
1104.000;0.084;82.469;0.084
1105.000;0.082;82.820;0.082
1106.000;0.084;82.453;0.084
1107.000;0.084;82.409;0.084
1108.000;0.083;82.644;0.083
1109.000;0.083;82.513;0.083
1110.000;0.084;82.337;0.084
1111.000;0.084;82.464;0.084
1112.000;0.083;82.634;0.083
1113.000;0.081;83.015;0.081
1114.000;0.083;82.540;0.083
1115.000;0.082;82.823;0.082
1116.000;0.081;82.980;0.081
1117.000;0.082;82.831;0.082
1118.000;0.082;82.776;0.082
1119.000;0.082;82.861;0.082
1120.000;0.082;82.823;0.082
1121.000;0.081;83.021;0.081
1122.000;0.080;83.087;0.080
1123.000;0.082;82.867;0.082
1124.000;0.082;82.779;0.082
1125.000;0.081;83.004;0.081
1126.000;0.080;83.138;0.080
1127.000;0.081;83.034;0.081
1128.000;0.080;83.245;0.080
1129.000;0.081;83.051;0.081
1130.000;0.081;82.944;0.081
1131.000;0.080;83.141;0.080
1132.000;0.081;82.966;0.081
1133.000;0.080;83.139;0.080
1134.000;0.082;82.856;0.082
1135.000;0.081;83.065;0.081
1136.000;0.080;83.223;0.080
1137.000;0.078;83.506;0.078
1138.000;0.068;85.476;0.068
1139.000;0.079;83.336;0.079
1140.000;0.081;83.045;0.081
1141.000;0.080;83.204;0.080
1142.000;0.080;83.257;0.080
1143.000;0.079;83.355;0.079
1144.000;0.078;83.586;0.078
1145.000;0.079;83.317;0.079
1146.000;0.081;83.078;0.081
1147.000;0.078;83.506;0.078
1148.000;0.078;83.654;0.078
1149.000;0.077;83.723;0.077
1150.000;0.078;83.468;0.078
1151.000;0.078;83.558;0.078
1152.000;0.077;83.759;0.077
1153.000;0.078;83.605;0.078
1154.000;0.076;83.863;0.076
1155.000;0.078;83.586;0.078
1156.000;0.079;83.460;0.079
1157.000;0.077;83.794;0.077
1158.000;0.078;83.643;0.078
1159.000;0.078;83.558;0.078
1160.000;0.079;83.388;0.079
1161.000;0.077;83.662;0.077
1162.000;0.076;83.997;0.076
1163.000;0.076;83.937;0.076
1164.000;0.078;83.525;0.078
1165.000;0.078;83.523;0.078
1166.000;0.075;84.058;0.075
1167.000;0.075;84.074;0.075
1168.000;0.075;84.178;0.075
1169.000;0.075;84.233;0.075
1170.000;0.076;83.901;0.076
1171.000;0.075;84.106;0.075
1172.000;0.076;83.939;0.076
1173.000;0.075;84.209;0.075
1174.000;0.076;83.978;0.076
1175.000;0.076;84.030;0.076
1176.000;0.076;84.000;0.076
1177.000;0.074;84.373;0.074
1178.000;0.074;84.340;0.074
1179.000;0.074;84.244;0.074
1180.000;0.074;84.323;0.074
1181.000;0.076;84.038;0.076
1182.000;0.074;84.263;0.074
1183.000;0.075;84.123;0.075
1184.000;0.075;84.085;0.075
1185.000;0.076;83.989;0.076
1186.000;0.074;84.384;0.074
1187.000;0.075;84.129;0.075
1188.000;0.073;84.442;0.073
1189.000;0.074;84.323;0.074
1190.000;0.072;84.636;0.072
1191.000;0.074;84.327;0.074
1192.000;0.075;84.159;0.075
1193.000;0.073;84.475;0.073
1194.000;0.072;84.639;0.072
1195.000;0.073;84.532;0.073
1196.000;0.074;84.381;0.074
1197.000;0.074;84.285;0.074
1198.000;0.073;84.540;0.073
1199.000;0.073;84.485;0.073
1200.000;0.074;84.381;0.074
1201.000;0.074;84.414;0.074
1202.000;0.073;84.614;0.073
1203.000;0.072;84.650;0.072
1204.000;0.073;84.474;0.073
1205.000;0.072;84.689;0.072
1206.000;0.071;84.927;0.071
1207.000;0.072;84.678;0.072
1208.000;0.073;84.601;0.073
1209.000;0.070;85.070;0.070
1210.000;0.072;84.793;0.072
1211.000;0.071;84.963;0.071
1212.000;0.071;84.998;0.071
1213.000;0.070;85.059;0.070
1214.000;0.071;84.842;0.071
1215.000;0.071;84.839;0.071
1216.000;0.071;84.853;0.071
1217.000;0.071;84.957;0.071
1218.000;0.070;85.150;0.070
1219.000;0.071;84.952;0.071
1220.000;0.070;85.075;0.070
1221.000;0.070;85.128;0.070
1222.000;0.070;85.207;0.070
1223.000;0.072;84.755;0.072
1224.000;0.072;84.787;0.072
1225.000;0.069;85.215;0.069
1226.000;0.069;85.344;0.069
1227.000;0.070;85.185;0.070
1228.000;0.070;85.032;0.070
1229.000;0.070;85.103;0.070
1230.000;0.070;85.196;0.070
1231.000;0.072;84.820;0.072
1232.000;0.069;85.407;0.069
1233.000;0.069;85.242;0.069
1234.000;0.069;85.287;0.069
1235.000;0.070;85.163;0.070
1236.000;0.070;85.072;0.070
1237.000;0.069;85.232;0.069
1238.000;0.068;85.514;0.068
1239.000;0.070;85.169;0.070
1240.000;0.068;85.487;0.068
1241.000;0.068;85.456;0.068
1242.000;0.068;85.566;0.068
1243.000;0.067;85.624;0.067
1244.000;0.068;85.514;0.068
1245.000;0.067;85.607;0.067
1246.000;0.068;85.522;0.068
1247.000;0.068;85.586;0.068
1248.000;0.069;85.388;0.069
1249.000;0.067;85.676;0.067
1250.000;0.068;85.578;0.068
1251.000;0.066;85.841;0.066
1252.000;0.067;85.802;0.067
1253.000;0.067;85.652;0.067
1254.000;0.065;86.057;0.065
1255.000;0.066;85.827;0.066
1256.000;0.067;85.712;0.067
1257.000;0.066;85.852;0.066
1258.000;0.066;85.890;0.066
1259.000;0.066;85.863;0.066
1260.000;0.067;85.641;0.067
1261.000;0.068;85.591;0.068
1262.000;0.067;85.742;0.067
1263.000;0.067;85.687;0.067
1264.000;0.068;85.446;0.068
1265.000;0.066;85.876;0.066
1266.000;0.066;85.978;0.066
1267.000;0.067;85.706;0.067
1268.000;0.066;85.983;0.066
1269.000;0.067;85.756;0.067
1270.000;0.066;85.978;0.066
1271.000;0.068;85.597;0.068
1272.000;0.065;86.120;0.065
1273.000;0.065;86.129;0.065
1274.000;0.066;85.967;0.066
1275.000;0.066;85.909;0.066
1276.000;0.066;85.830;0.066
1277.000;0.066;85.937;0.066
1278.000;0.066;85.822;0.066
1279.000;0.065;86.038;0.065
1280.000;0.065;86.186;0.065
1281.000;0.065;86.184;0.065
1282.000;0.065;86.172;0.065
1283.000;0.064;86.206;0.064
1284.000;0.064;86.387;0.064
1285.000;0.064;86.269;0.064
1286.000;0.064;86.280;0.064
1287.000;0.065;86.079;0.065
1288.000;0.064;86.307;0.064
1289.000;0.064;86.222;0.064
1290.000;0.064;86.225;0.064
1291.000;0.062;86.617;0.062
1292.000;0.062;86.710;0.062
1293.000;0.064;86.346;0.064
1294.000;0.063;86.516;0.063
1295.000;0.064;86.244;0.064
1296.000;0.063;86.543;0.063
1297.000;0.062;86.675;0.062
1298.000;0.064;86.310;0.064
1299.000;0.064;86.332;0.064
1300.000;0.062;86.636;0.062
1301.000;0.063;86.480;0.063
1302.000;0.062;86.746;0.062
1303.000;0.062;86.645;0.062
1304.000;0.063;86.477;0.063
1305.000;0.061;86.809;0.061
1306.000;0.062;86.710;0.062
1307.000;0.063;86.559;0.063
1308.000;0.061;86.864;0.061
1309.000;0.062;86.705;0.062
1310.000;0.062;86.634;0.062
1311.000;0.062;86.782;0.062
1312.000;0.060;87.045;0.060
1313.000;0.061;86.990;0.061
1314.000;0.062;86.751;0.062
1315.000;0.061;86.872;0.061
1316.000;0.062;86.752;0.062
1317.000;0.060;87.012;0.060
1318.000;0.062;86.628;0.062
1319.000;0.061;86.924;0.061
1320.000;0.060;87.015;0.060
1321.000;0.060;86.999;0.060
1322.000;0.059;87.341;0.059
1323.000;0.060;87.012;0.060
1324.000;0.062;86.795;0.062
1325.000;0.062;86.688;0.062
1326.000;0.060;87.048;0.060
1327.000;0.060;87.138;0.060
1328.000;0.060;87.155;0.060
1329.000;0.060;87.012;0.060
1330.000;0.059;87.210;0.059
1331.000;0.061;86.941;0.061
1332.000;0.060;87.160;0.060
1333.000;0.060;87.193;0.060
1334.000;0.060;87.029;0.060
1335.000;0.059;87.262;0.059
1336.000;0.060;87.108;0.060
1337.000;0.059;87.350;0.059
1338.000;0.059;87.330;0.059
1339.000;0.059;87.358;0.059
1340.000;0.059;87.352;0.059
1341.000;0.060;87.130;0.060
1342.000;0.059;87.355;0.059
1343.000;0.059;87.201;0.059
1344.000;0.060;87.026;0.060
1345.000;0.059;87.363;0.059
1346.000;0.060;87.185;0.060
1347.000;0.059;87.281;0.059
1348.000;0.058;87.451;0.058
1349.000;0.059;87.297;0.059
1350.000;0.058;87.451;0.058
1351.000;0.057;87.651;0.057
1352.000;0.060;87.155;0.060
1353.000;0.057;87.619;0.057
1354.000;0.059;87.256;0.059
1355.000;0.060;87.136;0.060
1356.000;0.058;87.418;0.058
1357.000;0.056;87.846;0.056
1358.000;0.057;87.632;0.057
1359.000;0.058;87.569;0.058
1360.000;0.057;87.742;0.057
1361.000;0.057;87.767;0.057
1362.000;0.057;87.723;0.057
1363.000;0.056;87.909;0.056
1364.000;0.057;87.657;0.057
1365.000;0.057;87.673;0.057
1366.000;0.058;87.596;0.058
1367.000;0.056;87.868;0.056
1368.000;0.057;87.780;0.057
1369.000;0.056;87.846;0.056
1370.000;0.054;88.216;0.054
1371.000;0.056;87.805;0.056
1372.000;0.056;87.857;0.056
1373.000;0.055;88.082;0.055
1374.000;0.057;87.687;0.057
1375.000;0.056;87.822;0.056
1376.000;0.056;87.885;0.056
1377.000;0.056;87.934;0.056
1378.000;0.055;88.096;0.055
1379.000;0.055;88.005;0.055
1380.000;0.056;87.934;0.056
1381.000;0.055;88.104;0.055
1382.000;0.056;87.948;0.056
1383.000;0.056;87.901;0.056
1384.000;0.055;88.030;0.055
1385.000;0.055;88.052;0.055
1386.000;0.054;88.225;0.054
1387.000;0.056;87.926;0.056
1388.000;0.054;88.244;0.054
1389.000;0.055;88.197;0.055
1390.000;0.054;88.211;0.054
1391.000;0.055;88.033;0.055
1392.000;0.055;88.077;0.055
1393.000;0.055;88.118;0.055
1394.000;0.056;87.989;0.056
1395.000;0.054;88.321;0.054
1396.000;0.054;88.337;0.054
1397.000;0.054;88.334;0.054
1398.000;0.054;88.293;0.054
1399.000;0.054;88.394;0.054
1400.000;0.054;88.334;0.054
1401.000;0.055;88.203;0.055
1402.000;0.053;88.521;0.053
1403.000;0.053;88.499;0.053
1404.000;0.052;88.631;0.052
1405.000;0.052;88.631;0.052
1406.000;0.053;88.411;0.053
1407.000;0.055;88.200;0.055
1408.000;0.054;88.332;0.054
1409.000;0.053;88.562;0.053
1410.000;0.053;88.456;0.053
1411.000;0.053;88.590;0.053
1412.000;0.052;88.666;0.052
1413.000;0.053;88.414;0.053
1414.000;0.053;88.565;0.053
1415.000;0.053;88.581;0.053
1416.000;0.053;88.587;0.053
1417.000;0.053;88.565;0.053
1418.000;0.052;88.814;0.052
1419.000;0.050;89.026;0.050
1420.000;0.052;88.806;0.052
1421.000;0.051;88.858;0.051
1422.000;0.051;88.913;0.051
1423.000;0.051;88.940;0.051
1424.000;0.052;88.702;0.052
1425.000;0.051;88.993;0.051
1426.000;0.051;88.840;0.051
1427.000;0.049;89.278;0.049
1428.000;0.052;88.689;0.052
1429.000;0.052;88.634;0.052
1430.000;0.050;89.155;0.050
1431.000;0.052;88.806;0.052
1432.000;0.051;88.853;0.051
1433.000;0.051;88.842;0.051
1434.000;0.051;88.883;0.051
1435.000;0.053;88.590;0.053
1436.000;0.052;88.752;0.052
1437.000;0.051;88.894;0.051
1438.000;0.052;88.689;0.052
1439.000;0.051;88.955;0.051
1440.000;0.050;89.193;0.050
1441.000;0.051;88.938;0.051
1442.000;0.051;88.952;0.051
1443.000;0.050;89.062;0.050
1444.000;0.051;88.872;0.051
1445.000;0.050;89.105;0.050
1446.000;0.049;89.229;0.049
1447.000;0.050;89.039;0.050
1448.000;0.050;89.056;0.050
1449.000;0.049;89.281;0.049
1450.000;0.048;89.448;0.048
1451.000;0.049;89.251;0.049
1452.000;0.049;89.325;0.049
1453.000;0.047;89.681;0.047
1454.000;0.050;89.149;0.050
1455.000;0.049;89.352;0.049
1456.000;0.049;89.237;0.049
1457.000;0.050;89.070;0.050
1458.000;0.050;89.051;0.050
1459.000;0.050;89.199;0.050
1460.000;0.049;89.339;0.049
1461.000;0.049;89.350;0.049
1462.000;0.048;89.473;0.048
1463.000;0.049;89.388;0.049
1464.000;0.048;89.473;0.048
1465.000;0.048;89.553;0.048
1466.000;0.046;89.874;0.046
1467.000;0.048;89.514;0.048
1468.000;0.049;89.402;0.049
1469.000;0.048;89.479;0.048
1470.000;0.049;89.380;0.049
1471.000;0.047;89.808;0.047
1472.000;0.048;89.525;0.048
1473.000;0.048;89.558;0.048
1474.000;0.047;89.802;0.047
1475.000;0.047;89.651;0.047
1476.000;0.047;89.690;0.047
1477.000;0.046;89.907;0.046
1478.000;0.048;89.607;0.048
1479.000;0.047;89.736;0.047
1480.000;0.046;89.893;0.046
1481.000;0.046;89.857;0.046
1482.000;0.048;89.481;0.048
1483.000;0.047;89.720;0.047
1484.000;0.046;89.904;0.046
1485.000;0.046;89.920;0.046
1486.000;0.046;89.876;0.046
1487.000;0.046;89.992;0.046
1488.000;0.046;89.992;0.046
1489.000;0.049;89.407;0.049
1490.000;0.047;89.668;0.047
1491.000;0.047;89.695;0.047
1492.000;0.046;89.947;0.046
1493.000;0.046;90.049;0.046
1494.000;0.045;90.134;0.045
1495.000;0.044;90.290;0.044
1496.000;0.046;89.950;0.046
1497.000;0.044;90.266;0.044
1498.000;0.046;89.917;0.046
1499.000;0.046;89.923;0.046
1500.000;0.047;89.821;0.047
1501.000;0.045;90.247;0.045
1502.000;0.047;89.841;0.047
1503.000;0.047;89.681;0.047
1504.000;0.046;90.041;0.046
1505.000;0.046;89.898;0.046
1506.000;0.047;89.783;0.047
1507.000;0.047;89.841;0.047
1508.000;0.047;89.835;0.047
1509.000;0.046;89.975;0.046
1510.000;0.044;90.414;0.044
1511.000;0.046;89.934;0.046
1512.000;0.045;90.222;0.045
1513.000;0.044;90.411;0.044
1514.000;0.044;90.425;0.044
1515.000;0.044;90.400;0.044
1516.000;0.044;90.370;0.044
1517.000;0.046;90.000;0.046
1518.000;0.046;90.022;0.046
1519.000;0.045;90.079;0.045
1520.000;0.044;90.296;0.044
1521.000;0.045;90.063;0.045
1522.000;0.044;90.299;0.044
1523.000;0.043;90.622;0.043
1524.000;0.043;90.672;0.043
1525.000;0.044;90.439;0.044
1526.000;0.044;90.422;0.044
1527.000;0.044;90.326;0.044
1528.000;0.042;90.702;0.042
1529.000;0.044;90.450;0.044
1530.000;0.044;90.395;0.044
1531.000;0.044;90.433;0.044
1532.000;0.045;90.189;0.045
1533.000;0.043;90.562;0.043
1534.000;0.042;90.825;0.042
1535.000;0.043;90.540;0.043
1536.000;0.043;90.647;0.043
1537.000;0.044;90.389;0.044
1538.000;0.041;90.944;0.041
1539.000;0.043;90.570;0.043
1540.000;0.044;90.450;0.044
1541.000;0.043;90.510;0.043
1542.000;0.042;90.749;0.042
1543.000;0.041;90.916;0.041
1544.000;0.043;90.612;0.043
1545.000;0.043;90.483;0.043
1546.000;0.041;90.968;0.041
1547.000;0.042;90.699;0.042
1548.000;0.042;90.875;0.042
1549.000;0.041;90.913;0.041
1550.000;0.039;91.421;0.039
1551.000;0.040;91.212;0.040
1552.000;0.042;90.883;0.042
1553.000;0.042;90.828;0.042
1554.000;0.042;90.730;0.042
1555.000;0.042;90.741;0.042
1556.000;0.043;90.540;0.043
1557.000;0.043;90.664;0.043
1558.000;0.041;90.927;0.041
1559.000;0.042;90.866;0.042
1560.000;0.042;90.790;0.042
1561.000;0.041;90.935;0.041
1562.000;0.041;90.963;0.041
1563.000;0.040;91.100;0.040
1564.000;0.040;91.196;0.040
1565.000;0.041;91.084;0.041
1566.000;0.041;91.023;0.041
1567.000;0.042;90.773;0.042
1568.000;0.041;91.086;0.041
1569.000;0.040;91.242;0.040
1570.000;0.042;90.859;0.042
1571.000;0.041;90.949;0.041
1572.000;0.039;91.374;0.039
1573.000;0.038;91.555;0.038
1574.000;0.040;91.166;0.040
1575.000;0.039;91.462;0.039
1576.000;0.039;91.401;0.039
1577.000;0.040;91.215;0.040
1578.000;0.038;91.594;0.038
1579.000;0.039;91.415;0.039
1580.000;0.038;91.522;0.038
1581.000;0.040;91.275;0.040
1582.000;0.039;91.407;0.039
1583.000;0.040;91.182;0.040
1584.000;0.039;91.314;0.039
1585.000;0.039;91.415;0.039
1586.000;0.040;91.144;0.040
1587.000;0.040;91.201;0.040
1588.000;0.040;91.097;0.040
1589.000;0.039;91.484;0.039
1590.000;0.038;91.701;0.038
1591.000;0.040;91.221;0.040
1592.000;0.039;91.426;0.039
1593.000;0.040;91.240;0.040
1594.000;0.039;91.358;0.039
1595.000;0.038;91.530;0.038
1596.000;0.040;91.248;0.040
1597.000;0.038;91.536;0.038
1598.000;0.040;91.152;0.040
1599.000;0.040;91.256;0.040
1600.000;0.039;91.454;0.039
1601.000;0.038;91.668;0.038
1602.000;0.038;91.561;0.038
1603.000;0.038;91.588;0.038
1604.000;0.038;91.723;0.038
1605.000;0.038;91.692;0.038
1606.000;0.037;91.816;0.037
1607.000;0.038;91.635;0.038
1608.000;0.039;91.459;0.039
1609.000;0.038;91.627;0.038
1610.000;0.038;91.690;0.038
1611.000;0.039;91.456;0.039
1612.000;0.039;91.495;0.039
1613.000;0.037;91.928;0.037
1614.000;0.037;91.802;0.037
1615.000;0.038;91.712;0.038
1616.000;0.038;91.692;0.038
1617.000;0.038;91.646;0.038
1618.000;0.037;91.876;0.037
1619.000;0.037;91.797;0.037
1620.000;0.038;91.725;0.038
1621.000;0.039;91.467;0.039
1622.000;0.038;91.522;0.038
1623.000;0.036;92.044;0.036
1624.000;0.037;91.807;0.037
1625.000;0.039;91.481;0.039
1626.000;0.035;92.277;0.035
1627.000;0.036;91.964;0.036
1628.000;0.038;91.555;0.038
1629.000;0.036;92.115;0.036
1630.000;0.036;92.068;0.036
1631.000;0.037;91.931;0.037
1632.000;0.037;91.748;0.037
1633.000;0.037;91.835;0.037
1634.000;0.038;91.722;0.038
1635.000;0.036;92.002;0.036
1636.000;0.036;92.071;0.036
1637.000;0.036;92.115;0.036
1638.000;0.036;91.942;0.036
1639.000;0.036;91.942;0.036
1640.000;0.036;91.947;0.036
1641.000;0.036;92.134;0.036
1642.000;0.035;92.235;0.035
1643.000;0.036;92.011;0.036
1644.000;0.037;91.789;0.037
1645.000;0.035;92.200;0.035
1646.000;0.037;91.766;0.037
1647.000;0.036;92.115;0.036
1648.000;0.036;92.128;0.036
1649.000;0.035;92.285;0.035
1650.000;0.035;92.244;0.035
1651.000;0.042;90.754;0.042
1652.000;0.037;91.879;0.037
1653.000;0.038;91.599;0.038
1654.000;0.034;92.562;0.034
1655.000;0.033;92.740;0.033
1656.000;0.034;92.537;0.034
1657.000;0.033;92.587;0.033
1658.000;0.033;92.696;0.033
1659.000;0.033;92.773;0.033
1660.000;0.032;92.864;0.032
1661.000;0.031;93.094;0.031
1662.000;0.034;92.444;0.034
1663.000;0.035;92.326;0.035
1664.000;0.035;92.178;0.035
1665.000;0.033;92.735;0.033
1666.000;0.033;92.716;0.033
1667.000;0.031;93.119;0.031
1668.000;0.034;92.485;0.034
1669.000;0.034;92.469;0.034
1670.000;0.032;92.905;0.032
1671.000;0.032;92.836;0.032
1672.000;0.033;92.746;0.033
1673.000;0.033;92.735;0.033
1674.000;0.032;92.993;0.032
1675.000;0.031;93.086;0.031
1676.000;0.033;92.685;0.033
1677.000;0.030;93.278;0.030
1678.000;0.030;93.232;0.030
1679.000;0.031;93.113;0.031
1680.000;0.032;92.823;0.032
1681.000;0.032;92.916;0.032
1682.000;0.033;92.655;0.033
1683.000;0.031;93.097;0.031
1684.000;0.032;92.946;0.032
1685.000;0.031;93.146;0.031
1686.000;0.032;92.993;0.032
1687.000;0.032;92.924;0.032
1688.000;0.032;92.809;0.032
1689.000;0.030;93.352;0.030
1690.000;0.031;93.018;0.031
1691.000;0.031;93.064;0.031
1692.000;0.029;93.440;0.029
1693.000;0.031;93.018;0.031
1694.000;0.032;92.974;0.032
1695.000;0.031;93.009;0.031
1696.000;0.030;93.284;0.030
1697.000;0.033;92.653;0.033
1698.000;0.030;93.358;0.030
1699.000;0.031;93.193;0.031
1700.000;0.029;93.490;0.029
1701.000;0.030;93.275;0.030
1702.000;0.031;93.185;0.031
1703.000;0.029;93.514;0.029
1704.000;0.029;93.550;0.029
1705.000;0.030;93.350;0.030
1706.000;0.031;93.171;0.031
1707.000;0.030;93.380;0.030
1708.000;0.028;93.706;0.028
1709.000;0.030;93.311;0.030
1710.000;0.030;93.273;0.030
1711.000;0.030;93.352;0.030
1712.000;0.032;92.968;0.032
1713.000;0.030;93.380;0.030
1714.000;0.029;93.555;0.029
1715.000;0.029;93.531;0.029
1716.000;0.030;93.245;0.030
1717.000;0.030;93.418;0.030
1718.000;0.030;93.256;0.030
1719.000;0.030;93.393;0.030
1720.000;0.030;93.253;0.030
1721.000;0.027;93.882;0.027
1722.000;0.030;93.366;0.030
1723.000;0.028;93.709;0.028
1724.000;0.029;93.456;0.029
1725.000;0.028;93.747;0.028
1726.000;0.029;93.459;0.029
1727.000;0.029;93.533;0.029
1728.000;0.030;93.385;0.030
1729.000;0.028;93.755;0.028
1730.000;0.027;94.008;0.027
1731.000;0.028;93.706;0.028
1732.000;0.028;93.733;0.028
1733.000;0.028;93.780;0.028
1734.000;0.028;93.802;0.028
1735.000;0.028;93.728;0.028
1736.000;0.027;94.027;0.027
1737.000;0.028;93.717;0.028
1738.000;0.026;94.150;0.026
1739.000;0.027;94.038;0.027
1740.000;0.027;94.008;0.027
1741.000;0.029;93.643;0.029
1742.000;0.028;93.687;0.028
1743.000;0.027;93.923;0.027
1744.000;0.026;94.128;0.026
1745.000;0.027;93.884;0.027
1746.000;0.027;93.901;0.027
1747.000;0.028;93.742;0.028
1748.000;0.028;93.788;0.028
1749.000;0.027;94.038;0.027
1750.000;0.028;93.731;0.028
1751.000;0.026;94.142;0.026
1752.000;0.026;94.249;0.026
1753.000;0.027;93.865;0.027
1754.000;0.027;93.978;0.027
1755.000;0.028;93.679;0.028
1756.000;0.029;93.525;0.029
1757.000;0.028;93.649;0.028
1758.000;0.027;94.011;0.027
1759.000;0.026;94.194;0.026
1760.000;0.028;93.786;0.028
1761.000;0.028;93.832;0.028
1762.000;0.027;94.079;0.027
1763.000;0.026;94.214;0.026
1764.000;0.026;94.258;0.026
1765.000;0.028;93.745;0.028
1766.000;0.026;94.101;0.026
1767.000;0.025;94.301;0.025
1768.000;0.026;94.112;0.026
1769.000;0.023;94.798;0.023
1770.000;0.026;94.191;0.026
1771.000;0.025;94.378;0.025
1772.000;0.026;94.098;0.026
1773.000;0.026;94.156;0.026
1774.000;0.026;94.159;0.026
1775.000;0.026;94.293;0.026
1776.000;0.024;94.581;0.024
1777.000;0.026;94.161;0.026
1778.000;0.025;94.318;0.025
1779.000;0.026;94.112;0.026
1780.000;0.026;94.126;0.026
1781.000;0.024;94.617;0.024
1782.000;0.025;94.499;0.025
1783.000;0.025;94.376;0.025
1784.000;0.025;94.384;0.025
1785.000;0.026;94.287;0.026
1786.000;0.024;94.639;0.024
1787.000;0.025;94.373;0.025
1788.000;0.025;94.362;0.025
1789.000;0.024;94.557;0.024
1790.000;0.025;94.449;0.025
1791.000;0.025;94.501;0.025
1792.000;0.024;94.570;0.024
1793.000;0.025;94.326;0.025
1794.000;0.026;94.180;0.026
1795.000;0.024;94.724;0.024
1796.000;0.025;94.430;0.025
1797.000;0.024;94.589;0.024
1798.000;0.023;94.759;0.023
1799.000;0.025;94.461;0.025
1800.000;0.025;94.474;0.025
1801.000;0.024;94.598;0.024
1802.000;0.026;94.172;0.026
1803.000;0.023;94.817;0.023
1804.000;0.024;94.727;0.024
1805.000;0.023;94.760;0.023
1806.000;0.025;94.460;0.025
1807.000;0.024;94.732;0.024
1808.000;0.023;94.839;0.023
1809.000;0.024;94.614;0.024
1810.000;0.023;94.817;0.023
1811.000;0.022;95.125;0.022
1812.000;0.023;94.811;0.023
1813.000;0.024;94.705;0.024
1814.000;0.023;94.782;0.023
1815.000;0.023;94.897;0.023
1816.000;0.023;94.743;0.023
1817.000;0.023;94.751;0.023
1818.000;0.024;94.556;0.024
1819.000;0.023;94.894;0.023
1820.000;0.023;94.858;0.023
1821.000;0.023;94.941;0.023
1822.000;0.023;94.803;0.023
1823.000;0.023;94.897;0.023
1824.000;0.023;94.924;0.023
1825.000;0.024;94.617;0.024
1826.000;0.023;94.787;0.023
1827.000;0.023;94.916;0.023
1828.000;0.022;95.006;0.022
1829.000;0.023;94.899;0.023
1830.000;0.023;94.776;0.023
1831.000;0.023;94.743;0.023
1832.000;0.022;95.097;0.022
1833.000;0.022;95.149;0.022
1834.000;0.022;95.039;0.022
1835.000;0.022;95.094;0.022
1836.000;0.023;94.880;0.023
1837.000;0.023;94.831;0.023
1838.000;0.023;94.888;0.023
1839.000;0.023;94.828;0.023
1840.000;0.021;95.371;0.021
1841.000;0.022;95.056;0.022
1842.000;0.022;95.141;0.022
1843.000;0.021;95.231;0.021
1844.000;0.023;94.919;0.023
1845.000;0.020;95.415;0.020
1846.000;0.021;95.314;0.021
1847.000;0.022;95.119;0.022
1848.000;0.020;95.484;0.020
1849.000;0.023;94.932;0.023
1850.000;0.022;95.105;0.022
1851.000;0.021;95.190;0.021
1852.000;0.022;95.007;0.022
1853.000;0.022;95.091;0.022
1854.000;0.023;94.938;0.023
1855.000;0.021;95.324;0.021
1856.000;0.021;95.383;0.021
1857.000;0.022;95.059;0.022
1858.000;0.021;95.223;0.021
1859.000;0.021;95.253;0.021
1860.000;0.021;95.311;0.021
1861.000;0.021;95.264;0.021
1862.000;0.021;95.209;0.021
1863.000;0.023;94.888;0.023
1864.000;0.019;95.618;0.019
1865.000;0.021;95.341;0.021
1866.000;0.021;95.179;0.021
1867.000;0.021;95.297;0.021
1868.000;0.022;95.102;0.022
1869.000;0.021;95.319;0.021
1870.000;0.020;95.418;0.020
1871.000;0.020;95.415;0.020
1872.000;0.021;95.311;0.021
1873.000;0.021;95.171;0.021
1874.000;0.021;95.261;0.021
1875.000;0.020;95.569;0.020
1876.000;0.022;95.144;0.022
1877.000;0.022;95.070;0.022
1878.000;0.022;94.973;0.022
1879.000;0.021;95.190;0.021
1880.000;0.021;95.273;0.021
1881.000;0.020;95.415;0.020
1882.000;0.019;95.805;0.019
1883.000;0.020;95.404;0.020
1884.000;0.021;95.379;0.021
1885.000;0.020;95.415;0.020
1886.000;0.020;95.435;0.020
1887.000;0.021;95.303;0.021
1888.000;0.021;95.388;0.021
1889.000;0.020;95.451;0.020
1890.000;0.020;95.520;0.020
1891.000;0.020;95.440;0.020
1892.000;0.019;95.722;0.019
1893.000;0.019;95.626;0.019
1894.000;0.019;95.807;0.019
1895.000;0.018;95.958;0.018
1896.000;0.021;95.349;0.021
1897.000;0.020;95.574;0.020
1898.000;0.018;95.868;0.018
1899.000;0.020;95.511;0.020
1900.000;0.019;95.775;0.019
1901.000;0.020;95.399;0.020
1902.000;0.020;95.539;0.020
1903.000;0.020;95.572;0.020
1904.000;0.020;95.561;0.020
1905.000;0.019;95.635;0.019
1906.000;0.019;95.640;0.019
1907.000;0.019;95.706;0.019
1908.000;0.019;95.766;0.019
1909.000;0.019;95.692;0.019
1910.000;0.020;95.520;0.020
1911.000;0.020;95.528;0.020
1912.000;0.018;95.832;0.018
1913.000;0.018;95.950;0.018
1914.000;0.020;95.604;0.020
1915.000;0.021;95.322;0.021
1916.000;0.019;95.712;0.019
1917.000;0.019;95.679;0.019
1918.000;0.018;95.906;0.018
1919.000;0.020;95.555;0.020
1920.000;0.019;95.805;0.019
1921.000;0.019;95.698;0.019
1922.000;0.018;95.953;0.018
1923.000;0.020;95.486;0.020
1924.000;0.020;95.552;0.020
1925.000;0.018;96.005;0.018
1926.000;0.020;95.569;0.020
1927.000;0.019;95.780;0.019
1928.000;0.019;95.805;0.019
1929.000;0.018;95.964;0.018
1930.000;0.019;95.766;0.019
1931.000;0.018;95.964;0.018
1932.000;0.019;95.651;0.019
1933.000;0.018;95.838;0.018
1934.000;0.019;95.703;0.019
1935.000;0.017;96.147;0.017
1936.000;0.017;96.095;0.017
1937.000;0.018;95.994;0.018
1938.000;0.019;95.736;0.019
1939.000;0.018;95.870;0.018
1940.000;0.019;95.730;0.019
1941.000;0.019;95.717;0.019
1942.000;0.018;96.046;0.018
1943.000;0.019;95.731;0.019
1944.000;0.018;95.849;0.018
1945.000;0.019;95.783;0.019
1946.000;0.018;95.953;0.018
1947.000;0.018;95.942;0.018
1948.000;0.017;96.189;0.017
1949.000;0.017;96.230;0.017
1950.000;0.018;95.851;0.018
1951.000;0.017;96.087;0.017
1952.000;0.020;95.432;0.020
1953.000;0.017;96.065;0.017
1954.000;0.018;95.843;0.018
1955.000;0.017;96.068;0.017
1956.000;0.019;95.818;0.019
1957.000;0.017;96.104;0.017
1958.000;0.018;95.890;0.018
1959.000;0.018;95.901;0.018
1960.000;0.015;96.551;0.015
1961.000;0.018;95.923;0.018
1962.000;0.017;96.224;0.017
1963.000;0.016;96.408;0.016
1964.000;0.016;96.301;0.016
1965.000;0.016;96.323;0.016
1966.000;0.016;96.299;0.016
1967.000;0.017;96.192;0.017
1968.000;0.016;96.493;0.016
1969.000;0.016;96.337;0.016
1970.000;0.016;96.458;0.016
1971.000;0.016;96.367;0.016
1972.000;0.015;96.545;0.015
1973.000;0.017;96.112;0.017
1974.000;0.016;96.446;0.016
1975.000;0.017;96.233;0.017
1976.000;0.015;96.611;0.015
1977.000;0.016;96.372;0.016
1978.000;0.016;96.342;0.016
1979.000;0.016;96.474;0.016
1980.000;0.016;96.491;0.016
1981.000;0.017;96.247;0.017
1982.000;0.015;96.529;0.015
1983.000;0.015;96.564;0.015
1984.000;0.015;96.589;0.015
1985.000;0.017;96.076;0.017
1986.000;0.016;96.274;0.016
1987.000;0.016;96.444;0.016
1988.000;0.017;96.252;0.017
1989.000;0.014;96.773;0.014
1990.000;0.017;96.104;0.017
1991.000;0.016;96.422;0.016
1992.000;0.017;96.252;0.017
1993.000;0.016;96.312;0.016
1994.000;0.016;96.307;0.016
1995.000;0.017;96.263;0.017
1996.000;0.016;96.397;0.016
1997.000;0.015;96.589;0.015
1998.000;0.014;96.759;0.014
1999.000;0.015;96.499;0.015
2000.000;0.016;96.414;0.016
2001.000;0.016;96.419;0.016
2002.000;0.017;96.175;0.017
2003.000;0.016;96.290;0.016
2004.000;0.016;96.452;0.016
2005.000;0.018;96.049;0.018
2006.000;0.017;96.211;0.017
2007.000;0.015;96.554;0.015
2008.000;0.016;96.315;0.016
2009.000;0.016;96.444;0.016
2010.000;0.016;96.441;0.016
2011.000;0.017;96.227;0.017
2012.000;0.015;96.556;0.015
2013.000;0.016;96.452;0.016
2014.000;0.013;97.014;0.013
2015.000;0.016;96.485;0.016
2016.000;0.014;96.773;0.014
2017.000;0.015;96.573;0.015
2018.000;0.014;96.718;0.014
2019.000;0.016;96.449;0.016
2020.000;0.016;96.285;0.016
2021.000;0.016;96.411;0.016
2022.000;0.014;96.754;0.014
2023.000;0.015;96.699;0.015
2024.000;0.014;96.823;0.014
2025.000;0.014;96.938;0.014
2026.000;0.014;96.847;0.014
2027.000;0.014;96.833;0.014
2028.000;0.015;96.705;0.015
2029.000;0.014;96.935;0.014
2030.000;0.014;96.814;0.014
2031.000;0.015;96.496;0.015
2032.000;0.015;96.603;0.015
2033.000;0.015;96.526;0.015
2034.000;0.014;96.795;0.014
2035.000;0.016;96.460;0.016
2036.000;0.014;96.855;0.014
2037.000;0.016;96.422;0.016
2038.000;0.015;96.617;0.015
2039.000;0.013;97.050;0.013
2040.000;0.013;97.102;0.013
2041.000;0.014;96.899;0.014
2042.000;0.013;96.963;0.013
2043.000;0.014;96.735;0.014
2044.000;0.013;97.102;0.013
2045.000;0.014;96.768;0.014
2046.000;0.014;96.844;0.014
2047.000;0.014;96.781;0.014
2048.000;0.016;96.430;0.016
2049.000;0.013;97.036;0.013
2050.000;0.013;96.976;0.013
2051.000;0.014;96.908;0.014
2052.000;0.012;97.212;0.012
2053.000;0.014;96.822;0.014
2054.000;0.012;97.179;0.012
2055.000;0.013;97.075;0.013
2056.000;0.014;96.820;0.014
2057.000;0.013;97.100;0.013
2058.000;0.012;97.291;0.012
2059.000;0.013;96.941;0.013
2060.000;0.014;96.795;0.014
2061.000;0.012;97.185;0.012
2062.000;0.014;96.757;0.014
2063.000;0.012;97.300;0.012
2064.000;0.014;96.756;0.014
2065.000;0.013;97.042;0.013
2066.000;0.011;97.388;0.011
2067.000;0.013;97.026;0.013
2068.000;0.013;97.020;0.013
2069.000;0.014;96.910;0.014
2070.000;0.013;96.990;0.013
2071.000;0.014;96.894;0.014
2072.000;0.013;97.020;0.013
2073.000;0.012;97.174;0.012
2074.000;0.014;96.886;0.014
2075.000;0.012;97.239;0.012
2076.000;0.013;97.012;0.013
2077.000;0.013;97.130;0.013
2078.000;0.014;96.913;0.014
2079.000;0.012;97.363;0.012
2080.000;0.013;97.160;0.013
2081.000;0.014;96.916;0.014
2082.000;0.014;96.900;0.014
2083.000;0.014;96.880;0.014
2084.000;0.013;96.941;0.013
2085.000;0.012;97.212;0.012
2086.000;0.013;97.025;0.013
2087.000;0.013;96.976;0.013
2088.000;0.012;97.207;0.012
2089.000;0.012;97.341;0.012
2090.000;0.013;97.127;0.013
2091.000;0.013;97.050;0.013
2092.000;0.014;96.729;0.014
2093.000;0.012;97.218;0.012
2094.000;0.012;97.243;0.012
2095.000;0.013;96.998;0.013
2096.000;0.014;96.784;0.014
2097.000;0.013;97.003;0.013
2098.000;0.012;97.343;0.012
2099.000;0.013;97.050;0.013
2100.000;0.012;97.229;0.012
2101.000;0.012;97.261;0.012
2102.000;0.012;97.193;0.012
2103.000;0.011;97.547;0.011
2104.000;0.010;97.668;0.010
2105.000;0.013;97.119;0.013
2106.000;0.012;97.171;0.012
2107.000;0.013;97.152;0.013
2108.000;0.012;97.239;0.012
2109.000;0.011;97.478;0.011
2110.000;0.011;97.470;0.011
2111.000;0.011;97.448;0.011
2112.000;0.012;97.319;0.012
2113.000;0.011;97.484;0.011
2114.000;0.010;97.788;0.010
2115.000;0.010;97.662;0.010
2116.000;0.011;97.412;0.011
2117.000;0.011;97.481;0.011
2118.000;0.011;97.519;0.011
2119.000;0.011;97.393;0.011
2120.000;0.012;97.330;0.012
2121.000;0.011;97.443;0.011
2122.000;0.011;97.583;0.011
2123.000;0.011;97.516;0.011
2124.000;0.010;97.736;0.010
2125.000;0.009;97.887;0.009
2126.000;0.013;97.163;0.013
2127.000;0.009;97.879;0.009
2128.000;0.010;97.775;0.010
2129.000;0.011;97.566;0.011
2130.000;0.009;97.862;0.009
2131.000;0.010;97.807;0.010
2132.000;0.010;97.739;0.010
2133.000;0.011;97.429;0.011
2134.000;0.011;97.582;0.011
2135.000;0.011;97.410;0.011
2136.000;0.011;97.561;0.011
2137.000;0.012;97.305;0.012
2138.000;0.010;97.711;0.010
2139.000;0.010;97.791;0.010
2140.000;0.010;97.758;0.010
2141.000;0.009;98.002;0.009
2142.000;0.011;97.519;0.011
2143.000;0.011;97.514;0.011
2144.000;0.012;97.278;0.012
2145.000;0.010;97.758;0.010
2146.000;0.012;97.322;0.012
2147.000;0.012;97.371;0.012
2148.000;0.010;97.794;0.010
2149.000;0.009;97.851;0.009
2150.000;0.010;97.758;0.010
2151.000;0.012;97.382;0.012
2152.000;0.010;97.709;0.010
2153.000;0.010;97.821;0.010
2154.000;0.010;97.772;0.010
2155.000;0.012;97.379;0.012
2156.000;0.010;97.711;0.010
2157.000;0.010;97.662;0.010
2158.000;0.010;97.667;0.010
2159.000;0.009;97.893;0.009
2160.000;0.009;97.950;0.009
2161.000;0.009;97.895;0.009
2162.000;0.010;97.659;0.010
2163.000;0.011;97.429;0.011
2164.000;0.011;97.538;0.011
2165.000;0.010;97.797;0.010
2166.000;0.010;97.766;0.010
2167.000;0.010;97.648;0.010
2168.000;0.009;97.912;0.009
2169.000;0.010;97.613;0.010
2170.000;0.009;97.881;0.009
2171.000;0.010;97.780;0.010
2172.000;0.010;97.673;0.010
2173.000;0.009;97.840;0.009
2174.000;0.009;97.969;0.009
2175.000;0.010;97.662;0.010
2176.000;0.009;97.884;0.009
2177.000;0.008;98.087;0.008
2178.000;0.010;97.796;0.010
2179.000;0.010;97.802;0.010
2180.000;0.010;97.670;0.010
2181.000;0.009;97.895;0.009
2182.000;0.009;97.950;0.009
2183.000;0.009;98.030;0.009
2184.000;0.010;97.821;0.010
2185.000;0.008;98.065;0.008
2186.000;0.011;97.596;0.011
2187.000;0.010;97.758;0.010
2188.000;0.011;97.558;0.011
2189.000;0.009;98.032;0.009
2190.000;0.008;98.156;0.008
2191.000;0.008;98.120;0.008
2192.000;0.010;97.657;0.010
2193.000;0.009;97.917;0.009
2194.000;0.009;97.857;0.009
2195.000;0.009;97.843;0.009
2196.000;0.010;97.651;0.010
2197.000;0.009;97.955;0.009
2198.000;0.008;98.071;0.008
2199.000;0.009;97.961;0.009
2200.000;0.010;97.717;0.010
2201.000;0.008;98.074;0.008
2202.000;0.009;97.917;0.009
2203.000;0.009;97.898;0.009
2204.000;0.011;97.602;0.011
2205.000;0.008;98.076;0.008
2206.000;0.009;97.920;0.009
2207.000;0.009;97.873;0.009
2208.000;0.008;98.142;0.008
2209.000;0.008;98.216;0.008
2210.000;0.009;97.964;0.009
2211.000;0.009;97.931;0.009
2212.000;0.009;98.043;0.009
2213.000;0.009;98.038;0.009
2214.000;0.009;97.999;0.009
2215.000;0.009;98.054;0.009
2216.000;0.009;97.923;0.009
2217.000;0.007;98.381;0.007
2218.000;0.008;98.137;0.008
2219.000;0.007;98.411;0.007
2220.000;0.007;98.318;0.007
2221.000;0.008;98.098;0.008
2222.000;0.009;97.892;0.009
2223.000;0.008;98.071;0.008
2224.000;0.008;98.093;0.008
2225.000;0.008;98.205;0.008
2226.000;0.008;98.137;0.008
2227.000;0.009;97.862;0.009
2228.000;0.010;97.695;0.010
2229.000;0.009;97.978;0.009
2230.000;0.009;97.964;0.009
2231.000;0.008;98.098;0.008
2232.000;0.008;98.167;0.008
2233.000;0.008;98.178;0.008
2234.000;0.008;98.142;0.008
2235.000;0.008;98.109;0.008
2236.000;0.007;98.301;0.007
2237.000;0.008;98.277;0.008
2238.000;0.008;98.216;0.008
2239.000;0.006;98.537;0.006
2240.000;0.007;98.485;0.007
2241.000;0.006;98.630;0.006
2242.000;0.008;98.115;0.008
2243.000;0.008;98.260;0.008
2244.000;0.008;98.192;0.008
2245.000;0.008;98.282;0.008
2246.000;0.007;98.386;0.007
2247.000;0.008;98.087;0.008
2248.000;0.009;97.997;0.009
2249.000;0.008;98.230;0.008
2250.000;0.007;98.375;0.007
2251.000;0.008;98.076;0.008
2252.000;0.007;98.447;0.007
2253.000;0.007;98.463;0.007
2254.000;0.007;98.378;0.007
2255.000;0.007;98.507;0.007
2256.000;0.007;98.474;0.007
2257.000;0.007;98.441;0.007
2258.000;0.007;98.452;0.007
2259.000;0.008;98.211;0.008
2260.000;0.006;98.617;0.006
2261.000;0.008;98.246;0.008
2262.000;0.008;98.282;0.008
2263.000;0.009;98.038;0.009
2264.000;0.009;98.032;0.009
2265.000;0.010;97.780;0.010
2266.000;0.008;98.065;0.008
2267.000;0.009;97.914;0.009
2268.000;0.008;98.227;0.008
2269.000;0.007;98.455;0.007
2270.000;0.006;98.545;0.006
2271.000;0.006;98.559;0.006
2272.000;0.008;98.222;0.008
2273.000;0.006;98.669;0.006
2274.000;0.008;98.230;0.008
2275.000;0.007;98.417;0.007
2276.000;0.007;98.490;0.007
2277.000;0.007;98.400;0.007
2278.000;0.007;98.329;0.007
2279.000;0.008;98.227;0.008
2280.000;0.007;98.425;0.007
2281.000;0.006;98.534;0.006
2282.000;0.007;98.449;0.007
2283.000;0.007;98.340;0.007
2284.000;0.007;98.433;0.007
2285.000;0.005;98.927;0.005
2286.000;0.006;98.586;0.006
2287.000;0.006;98.562;0.006
2288.000;0.006;98.644;0.006
2289.000;0.007;98.444;0.007
2290.000;0.007;98.290;0.007
2291.000;0.006;98.592;0.006
2292.000;0.007;98.403;0.007
2293.000;0.004;99.023;0.004
2294.000;0.006;98.587;0.006
2295.000;0.005;98.833;0.005
2296.000;0.005;98.784;0.005
2297.000;0.006;98.713;0.006
2298.000;0.006;98.534;0.006
2299.000;0.006;98.688;0.006
2300.000;0.006;98.636;0.006
2301.000;0.005;98.957;0.005
2302.000;0.006;98.606;0.006
2303.000;0.005;98.795;0.005
2304.000;0.007;98.417;0.007
2305.000;0.006;98.710;0.006
2306.000;0.006;98.671;0.006
2307.000;0.006;98.619;0.006
2308.000;0.006;98.636;0.006
2309.000;0.006;98.587;0.006
2310.000;0.008;98.263;0.008
2311.000;0.007;98.457;0.007
2312.000;0.005;98.861;0.005
2313.000;0.006;98.603;0.006
2314.000;0.006;98.644;0.006
2315.000;0.007;98.354;0.007
2316.000;0.007;98.491;0.007
2317.000;0.005;98.896;0.005
2318.000;0.005;98.861;0.005
2319.000;0.006;98.628;0.006
2320.000;0.005;98.798;0.005
2321.000;0.005;98.828;0.005
2322.000;0.005;98.962;0.005
2323.000;0.006;98.732;0.006
2324.000;0.006;98.680;0.006
2325.000;0.006;98.707;0.006
2326.000;0.007;98.312;0.007
2327.000;0.006;98.666;0.006
2328.000;0.007;98.296;0.007
2329.000;0.006;98.729;0.006
2330.000;0.006;98.526;0.006
2331.000;0.007;98.493;0.007
2332.000;0.005;98.847;0.005
2333.000;0.008;98.191;0.008
2334.000;0.005;98.891;0.005
2335.000;0.007;98.384;0.007
2336.000;0.006;98.666;0.006
2337.000;0.004;99.058;0.004
2338.000;0.004;99.039;0.004
2339.000;0.005;98.801;0.005
2340.000;0.006;98.691;0.006
2341.000;0.005;98.864;0.005
2342.000;0.005;98.897;0.005
2343.000;0.004;99.020;0.004
2344.000;0.005;98.822;0.005
2345.000;0.005;98.864;0.005
2346.000;0.005;98.899;0.005
2347.000;0.005;98.809;0.005
2348.000;0.004;98.979;0.004
2349.000;0.005;98.872;0.005
2350.000;0.004;99.050;0.004
2351.000;0.006;98.737;0.006
2352.000;0.004;99.174;0.004
2353.000;0.005;98.856;0.005
2354.000;0.006;98.641;0.006
2355.000;0.005;98.784;0.005
2356.000;0.005;98.853;0.005
2357.000;0.005;98.869;0.005
2358.000;0.006;98.683;0.006
2359.000;0.005;98.916;0.005
2360.000;0.006;98.548;0.006
2361.000;0.007;98.463;0.007
2362.000;0.004;98.971;0.004
2363.000;0.006;98.682;0.006
2364.000;0.005;98.935;0.005
2365.000;0.004;99.187;0.004
2366.000;0.004;99.099;0.004
2367.000;0.004;99.105;0.004
2368.000;0.005;98.784;0.005
2369.000;0.006;98.630;0.006
2370.000;0.004;99.080;0.004
2371.000;0.004;99.124;0.004
2372.000;0.004;99.135;0.004
2373.000;0.005;98.880;0.005
2374.000;0.006;98.628;0.006
2375.000;0.005;98.809;0.005
2376.000;0.004;99.001;0.004
2377.000;0.005;98.954;0.005
2378.000;0.006;98.707;0.006
2379.000;0.004;99.154;0.004
2380.000;0.005;98.778;0.005
2381.000;0.003;99.319;0.003
2382.000;0.004;99.157;0.004
2383.000;0.004;99.045;0.004
2384.000;0.004;99.195;0.004
2385.000;0.005;98.891;0.005
2386.000;0.005;98.869;0.005
2387.000;0.005;98.839;0.005
2388.000;0.002;99.434;0.002
2389.000;0.005;98.960;0.005
2390.000;0.004;99.045;0.004
2391.000;0.004;99.056;0.004
2392.000;0.004;99.069;0.004
2393.000;0.004;99.094;0.004
2394.000;0.005;98.935;0.005
2395.000;0.007;98.474;0.007
2396.000;0.005;98.812;0.005
2397.000;0.005;98.946;0.005
2398.000;0.005;98.885;0.005
2399.000;0.005;98.845;0.005
2400.000;0.003;99.289;0.003
2401.000;0.005;98.921;0.005
2402.000;0.005;98.822;0.005
2403.000;0.004;99.116;0.004
2404.000;0.004;98.992;0.004
2405.000;0.004;99.064;0.004
2406.000;0.005;98.883;0.005
2407.000;0.004;99.141;0.004
2408.000;0.005;98.888;0.005
2409.000;0.004;99.105;0.004
2410.000;0.005;98.899;0.005
2411.000;0.003;99.357;0.003
2412.000;0.005;98.951;0.005
2413.000;0.005;98.875;0.005
2414.000;0.004;99.108;0.004
2415.000;0.005;98.891;0.005
2416.000;0.004;99.094;0.004
2417.000;0.005;98.858;0.005
2418.000;0.005;98.850;0.005
2419.000;0.003;99.209;0.003
2420.000;0.004;99.039;0.004
2421.000;0.004;99.163;0.004
2422.000;0.004;99.009;0.004
2423.000;0.004;99.023;0.004
2424.000;0.003;99.316;0.003
2425.000;0.004;99.097;0.004
2426.000;0.004;99.094;0.004
2427.000;0.005;98.809;0.005
2428.000;0.004;99.108;0.004
2429.000;0.004;99.055;0.004
2430.000;0.004;99.025;0.004
2431.000;0.004;99.108;0.004
2432.000;0.005;98.814;0.005
2433.000;0.004;99.045;0.004
2434.000;0.005;98.949;0.005
2435.000;0.003;99.305;0.003
2436.000;0.004;99.140;0.004
2437.000;0.005;98.880;0.005
2438.000;0.002;99.445;0.002
2439.000;0.003;99.229;0.003
2440.000;0.003;99.398;0.003
2441.000;0.003;99.278;0.003
2442.000;0.003;99.294;0.003
2443.000;0.004;99.061;0.004
2444.000;0.004;99.097;0.004
2445.000;0.005;98.929;0.005
2446.000;0.003;99.346;0.003
2447.000;0.002;99.514;0.002
2448.000;0.003;99.212;0.003
2449.000;0.004;99.176;0.004
2450.000;0.001;99.659;0.001
2451.000;0.004;99.086;0.004
2452.000;0.004;99.072;0.004
2453.000;0.003;99.401;0.003
2454.000;0.004;99.102;0.004
2455.000;0.003;99.305;0.003
2456.000;0.003;99.346;0.003
2457.000;0.003;99.262;0.003
2458.000;0.004;99.141;0.004
2459.000;0.004;99.105;0.004
2460.000;0.003;99.278;0.003
2461.000;0.004;99.086;0.004
2462.000;0.003;99.267;0.003
2463.000;0.004;99.163;0.004
2464.000;0.003;99.226;0.003
2465.000;0.004;99.171;0.004
2466.000;0.002;99.453;0.002
2467.000;0.004;99.146;0.004
2468.000;0.004;99.025;0.004
2469.000;0.003;99.371;0.003
2470.000;0.003;99.253;0.003
2471.000;0.002;99.527;0.002
2472.000;0.001;99.736;0.001
2473.000;0.003;99.201;0.003
2474.000;0.003;99.302;0.003
2475.000;0.004;99.083;0.004
2476.000;0.004;99.113;0.004
2477.000;0.003;99.234;0.003
2478.000;0.004;99.187;0.004
2479.000;0.001;99.689;0.001
2480.000;0.003;99.245;0.003
2481.000;0.003;99.253;0.003
2482.000;0.003;99.212;0.003
2483.000;0.002;99.582;0.002
2484.000;0.003;99.382;0.003
2485.000;0.002;99.533;0.002
2486.000;0.002;99.566;0.002
2487.000;0.003;99.201;0.003
2488.000;0.004;99.174;0.004
2489.000;0.003;99.278;0.003
2490.000;0.002;99.500;0.002
2491.000;0.002;99.618;0.002
2492.000;0.004;99.075;0.004
2493.000;0.003;99.404;0.003
2494.000;0.004;99.152;0.004
2495.000;0.002;99.456;0.002
2496.000;0.004;98.984;0.004
2497.000;0.004;99.166;0.004
2498.000;0.004;99.017;0.004
2499.000;0.003;99.390;0.003
2500.000;0.003;99.319;0.003
2501.000;0.004;99.193;0.004
2502.000;0.003;99.393;0.003
2503.000;0.003;99.423;0.003
2504.000;0.002;99.542;0.002
2505.000;0.003;99.393;0.003
2506.000;0.003;99.269;0.003
2507.000;0.002;99.503;0.002
2508.000;0.003;99.330;0.003
2509.000;0.001;99.686;0.001
2510.000;7.784E-4;99.821;7.784E-4
2511.000;0.001;99.747;0.001
2512.000;0.002;99.579;0.002
2513.000;0.002;99.544;0.002
2514.000;0.003;99.256;0.003
2515.000;0.002;99.484;0.002
2516.000;0.002;99.470;0.002
2517.000;0.003;99.240;0.003
2518.000;0.003;99.264;0.003
2519.000;0.002;99.585;0.002
2520.000;0.002;99.464;0.002
2521.000;0.003;99.385;0.003
2522.000;0.004;99.187;0.004
2523.000;0.004;99.091;0.004
2524.000;0.003;99.349;0.003
2525.000;0.003;99.412;0.003
2526.000;0.002;99.508;0.002
2527.000;0.002;99.618;0.002
2528.000;0.002;99.456;0.002
2529.000;0.001;99.742;0.001
2530.000;0.002;99.443;0.002
2531.000;0.001;99.731;0.001
2532.000;0.002;99.505;0.002
2533.000;0.002;99.640;0.002
2534.000;8.972E-4;99.794;8.972E-4
2535.000;0.002;99.453;0.002
2536.000;0.002;99.533;0.002
2537.000;0.002;99.533;0.002
2538.000;0.002;99.596;0.002
2539.000;0.002;99.632;0.002
2540.000;0.002;99.541;0.002
2541.000;0.001;99.766;0.001
2542.000;0.002;99.602;0.002
2543.000;0.001;99.676;0.001
2544.000;0.002;99.610;0.002
2545.000;0.002;99.483;0.002
2546.000;8.735E-4;99.799;8.735E-4
2547.000;0.001;99.700;0.001
2548.000;0.002;99.503;0.002
2549.000;0.002;99.451;0.002
2550.000;0.002;99.519;0.002
2551.000;0.002;99.486;0.002
2552.000;0.002;99.453;0.002
